SpectraSuite Data File
++++++++++++++++++++++++++++++++++++
Date: Fri Jan 24 17:00:44 MST 2020
User: Molly
Dark Spectrum Present: Yes
Reference Spectrum Present: Yes
Number of Sampled Component Spectra: 1
Spectrometers: USB4E03280
Integration Time (usec): 32000 (USB4E03280)
Spectra Averaged: 1 (USB4E03280)
Boxcar Smoothing: 0 (USB4E03280)
Correct for Electrical Dark: No (USB4E03280)
Strobe/Lamp Enabled: Yes (USB4E03280)
Correct for Detector Non-linearity: No (USB4E03280)
Correct for Stray Light: No (USB4E03280)
Number of Pixels in Processed Spectrum: 3648
>>>>>Begin Processed Spectral Data<<<<<
177.66	1134.57
177.88	1134.57
178.10	1134.57
178.32	1218.54
178.54	1265.64
178.76	1308.65
178.98	1222.64
179.19	1300.46
179.41	1165.29
179.63	1202.16
179.85	1146.86
180.07	1224.69
180.29	1206.25
180.51	1296.36
180.72	1255.40
180.94	1210.35
181.16	1204.21
181.38	1187.82
181.60	1236.97
181.82	1247.21
182.04	1214.45
182.25	1198.06
182.47	1259.50
182.69	1257.45
182.91	1265.64
183.13	1206.25
183.35	1185.77
183.56	1212.40
183.78	1216.49
184.00	1249.26
184.22	1216.49
184.44	1169.39
184.66	1179.63
184.87	1265.64
185.09	1224.69
185.31	1193.97
185.53	1253.36
185.75	1236.97
185.97	1218.54
186.18	1232.88
186.40	1259.50
186.62	1261.55
186.84	1202.16
187.06	1263.60
187.28	1218.54
187.49	1222.64
187.71	1177.58
187.93	1198.06
188.15	1269.74
188.37	1241.07
188.59	1245.16
188.80	1230.83
189.02	1216.49
189.24	1331.18
189.46	1243.12
189.68	1249.26
189.89	1150.96
190.11	1214.45
190.33	1282.03
190.55	1275.88
190.77	1271.79
190.98	1226.73
191.20	1251.31
191.42	1218.54
191.64	1333.23
191.86	1271.79
192.07	1214.45
192.29	1249.26
192.51	1191.92
192.73	1241.07
192.95	1259.50
193.16	1249.26
193.38	1370.09
193.60	1265.64
193.82	1265.64
194.04	1124.33
194.25	1196.01
194.47	1247.21
194.69	1230.83
194.91	1282.03
195.13	1148.91
195.34	1247.21
195.56	1253.36
195.78	1243.12
196.00	1271.79
196.22	1185.77
196.43	1230.83
196.65	1179.63
196.87	1224.69
197.09	1282.03
197.30	1218.54
197.52	1222.64
197.74	1222.64
197.96	1202.16
198.18	1155.05
198.39	1206.25
198.61	1218.54
198.83	1241.07
199.05	1163.25
199.26	1183.73
199.48	1255.40
199.70	1218.54
199.92	1173.49
200.13	1257.45
200.35	1136.62
200.57	1165.29
200.79	1224.69
201.00	1218.54
201.22	1214.45
201.44	1253.36
201.66	1222.64
201.88	1325.04
202.09	1255.40
202.31	1226.73
202.53	1249.26
202.75	1189.87
202.96	1226.73
203.18	1241.07
203.40	1236.97
203.62	1228.78
203.83	1290.22
204.05	1259.50
204.27	1261.55
204.49	1212.40
204.70	1263.60
204.92	1226.73
205.14	1173.49
205.35	1198.06
205.57	1247.21
205.79	1193.97
206.01	1228.78
206.22	1271.79
206.44	1232.88
206.66	1228.78
206.88	1249.26
207.09	1286.12
207.31	1249.26
207.53	1224.69
207.75	1259.50
207.96	1249.26
208.18	1234.93
208.40	1265.64
208.61	1239.02
208.83	1193.97
209.05	1218.54
209.27	1218.54
209.48	1294.32
209.70	1196.01
209.92	1251.31
210.14	1206.25
210.35	1177.58
210.57	1230.83
210.79	1271.79
211.00	1275.88
211.22	1210.35
211.44	1224.69
211.66	1232.88
211.87	1196.01
212.09	1241.07
212.31	1261.55
212.52	1191.92
212.74	1234.93
212.96	1249.26
213.17	1198.06
213.39	1228.78
213.61	1226.73
213.83	1224.69
214.04	1220.59
214.26	1249.26
214.48	1232.88
214.69	1241.07
214.91	1236.97
215.13	1239.02
215.34	1159.15
215.56	1136.62
215.78	1263.60
216.00	1220.59
216.21	1226.73
216.43	1243.12
216.65	1165.29
216.86	1198.06
217.08	1257.45
217.30	1239.02
217.51	1236.97
217.73	1253.36
217.95	1267.69
218.16	1261.55
218.38	1236.97
218.60	1232.88
218.81	1167.34
219.03	1218.54
219.25	1171.44
219.46	1228.78
219.68	1202.16
219.90	1249.26
220.11	1220.59
220.33	1218.54
220.55	1132.53
220.76	1245.16
220.98	1173.49
221.20	1306.60
221.41	1228.78
221.63	1185.77
221.85	1198.06
222.06	1204.21
222.28	1161.20
222.50	1245.16
222.71	1204.21
222.93	1161.20
223.15	1198.06
223.36	1206.25
223.58	1251.31
223.80	1224.69
224.01	1234.93
224.23	1259.50
224.45	1253.36
224.66	1224.69
224.88	1255.40
225.10	1277.93
225.31	1150.96
225.53	1214.45
225.75	1214.45
225.96	1226.73
226.18	1157.10
226.39	1222.64
226.61	1251.31
226.83	1288.17
227.04	1173.49
227.26	1257.45
227.48	1269.74
227.69	1230.83
227.91	1257.45
228.13	1341.42
228.34	1241.07
228.56	1236.97
228.77	1183.73
228.99	1216.49
229.21	1202.16
229.42	1191.92
229.64	1226.73
229.86	1206.25
230.07	1198.06
230.29	1257.45
230.50	1241.07
230.72	1187.82
230.94	1253.36
231.15	1286.12
231.37	1271.79
231.58	1308.65
231.80	1302.51
232.02	1243.12
232.23	1183.73
232.45	1222.64
232.67	1249.26
232.88	1185.77
233.10	1241.07
233.31	1275.88
233.53	1161.20
233.75	1216.49
233.96	1214.45
234.18	1255.40
234.39	1185.77
234.61	1193.97
234.83	1153.01
235.04	1208.30
235.26	1163.25
235.47	1241.07
235.69	1193.97
235.91	1253.36
236.12	1241.07
236.34	1267.69
236.55	1241.07
236.77	1218.54
236.99	1159.15
237.20	1253.36
237.42	1300.46
237.63	1277.93
237.85	1286.12
238.06	1267.69
238.28	1202.16
238.50	1232.88
238.71	1277.93
238.93	1191.92
239.14	1230.83
239.36	1277.93
239.58	1232.88
239.79	1175.53
240.01	1220.59
240.22	1239.02
240.44	1222.64
240.65	1212.40
240.87	1206.25
241.09	1136.62
241.30	1224.69
241.52	1210.35
241.73	1232.88
241.95	1148.91
242.16	1232.88
242.38	1193.97
242.59	1239.02
242.81	1263.60
243.03	1265.64
243.24	1296.36
243.46	1198.06
243.67	1202.16
243.89	1234.93
244.10	1259.50
244.32	1320.94
244.53	1173.49
244.75	1261.55
244.97	1286.12
245.18	1212.40
245.40	1224.69
245.61	1259.50
245.83	1163.25
246.04	1261.55
246.26	1257.45
246.47	1202.16
246.69	1255.40
246.90	1189.87
247.12	1228.78
247.34	1275.88
247.55	1255.40
247.77	1255.40
247.98	1198.06
248.20	1165.29
248.41	1251.31
248.63	1222.64
248.84	1216.49
249.06	1269.74
249.27	1247.21
249.49	1173.49
249.70	1177.58
249.92	1179.63
250.13	1210.35
250.35	1220.59
250.56	1234.93
250.78	1196.01
251.00	1226.73
251.21	1185.77
251.43	1269.74
251.64	1208.30
251.86	1259.50
252.07	1263.60
252.29	1253.36
252.50	1185.77
252.72	1257.45
252.93	1175.53
253.15	1191.92
253.36	1253.36
253.58	1257.45
253.79	1226.73
254.01	1331.18
254.22	1179.63
254.44	1216.49
254.65	1277.93
254.87	1267.69
255.08	1271.79
255.30	1247.21
255.51	1204.21
255.73	1138.67
255.94	1196.01
256.16	1312.75
256.37	1173.49
256.59	1239.02
256.80	1189.87
257.02	1191.92
257.23	1296.36
257.45	1273.84
257.66	1232.88
257.88	1220.59
258.09	1247.21
258.31	1234.93
258.52	1120.24
258.74	1228.78
258.95	1279.98
259.16	1261.55
259.38	1234.93
259.59	1306.60
259.81	1148.91
260.02	1304.56
260.24	1214.45
260.45	1247.21
260.67	1257.45
260.88	1247.21
261.10	1296.36
261.31	1253.36
261.53	1300.46
261.74	1232.88
261.96	1222.64
262.17	1173.49
262.39	1259.50
262.60	1228.78
262.81	1286.12
263.03	1284.08
263.24	1175.53
263.46	1245.16
263.67	1228.78
263.89	1251.31
264.10	1212.40
264.32	1181.68
264.53	1226.73
264.75	1259.50
264.96	1236.97
265.17	1202.16
265.39	1243.12
265.60	1214.45
265.82	1153.01
266.03	1294.32
266.25	1267.69
266.46	1200.11
266.68	1226.73
266.89	1251.31
267.10	1239.02
267.32	1253.36
267.53	1232.88
267.75	1241.07
267.96	1284.08
268.18	1245.16
268.39	1206.25
268.61	1204.21
268.82	1228.78
269.03	1216.49
269.25	1226.73
269.46	1253.36
269.68	1271.79
269.89	1241.07
270.11	1196.01
270.32	1234.93
270.53	1159.15
270.75	1239.02
270.96	1200.11
271.18	1202.16
271.39	1257.45
271.60	1204.21
271.82	1187.82
272.03	1165.29
272.25	1267.69
272.46	1357.80
272.68	1277.93
272.89	1181.68
273.10	1204.21
273.32	1163.25
273.53	1282.03
273.75	1259.50
273.96	1208.30
274.17	1212.40
274.39	1277.93
274.60	1210.35
274.82	1251.31
275.03	1173.49
275.24	1230.83
275.46	1224.69
275.67	1300.46
275.89	1259.50
276.10	1234.93
276.31	1210.35
276.53	1200.11
276.74	1222.64
276.96	1292.27
277.17	1232.88
277.38	1220.59
277.60	1269.74
277.81	1161.20
278.02	1245.16
278.24	1196.01
278.45	1193.97
278.67	1198.06
278.88	1253.36
279.09	1282.03
279.31	1163.25
279.52	1265.64
279.73	1187.82
279.95	1228.78
280.16	1257.45
280.38	1173.49
280.59	1282.03
280.80	1206.25
281.02	1189.87
281.23	1230.83
281.44	1220.59
281.66	1210.35
281.87	1230.83
282.09	1263.60
282.30	1269.74
282.51	1234.93
282.73	1222.64
282.94	1210.35
283.15	1202.16
283.37	1243.12
283.58	1253.36
283.79	1247.21
284.01	1171.44
284.22	1263.60
284.43	1196.01
284.65	1181.68
284.86	1234.93
285.07	1222.64
285.29	1216.49
285.50	1208.30
285.72	1304.56
285.93	1269.74
286.14	1228.78
286.36	1263.60
286.57	1144.81
286.78	1243.12
287.00	1187.82
287.21	1212.40
287.42	1214.45
287.64	1232.88
287.85	1310.70
288.06	1191.92
288.28	1208.30
288.49	1189.87
288.70	1212.40
288.92	1247.21
289.13	1329.13
289.34	1210.35
289.56	1208.30
289.77	1181.68
289.98	1284.08
290.19	1273.84
290.41	1214.45
290.62	1269.74
290.83	1263.60
291.05	1267.69
291.26	1165.29
291.47	1243.12
291.69	1308.65
291.90	1267.69
292.11	1249.26
292.33	1243.12
292.54	1216.49
292.75	1230.83
292.97	1284.08
293.18	1196.01
293.39	1173.49
293.60	1208.30
293.82	1282.03
294.03	1236.97
294.24	1271.79
294.46	1220.59
294.67	1202.16
294.88	1214.45
295.10	1251.31
295.31	1198.06
295.52	1218.54
295.73	1189.87
295.95	1249.26
296.16	1179.63
296.37	1263.60
296.59	1179.63
296.80	1196.01
297.01	1234.93
297.22	1234.93
297.44	1271.79
297.65	1261.55
297.86	1214.45
298.08	1267.69
298.29	1193.97
298.50	1216.49
298.71	1202.16
298.93	1236.97
299.14	1259.50
299.35	1302.51
299.56	1298.41
299.78	1279.98
299.99	1185.77
300.20	1253.36
300.42	1206.25
300.63	1228.78
300.84	1183.73
301.05	1224.69
301.27	1253.36
301.48	1191.92
301.69	1224.69
301.90	1226.73
302.12	1177.58
302.33	1165.29
302.54	1161.20
302.75	1279.98
302.97	1210.35
303.18	1212.40
303.39	1261.55
303.60	1185.77
303.82	1243.12
304.03	1239.02
304.24	1269.74
304.45	1224.69
304.67	1230.83
304.88	1169.39
305.09	1224.69
305.30	1206.25
305.52	1292.27
305.73	1255.40
305.94	1239.02
306.15	1255.40
306.37	1265.64
306.58	1318.89
306.79	1204.21
307.00	1249.26
307.22	1230.83
307.43	1140.72
307.64	1286.12
307.85	1140.72
308.06	1302.51
308.28	1208.30
308.49	1230.83
308.70	1204.21
308.91	1138.67
309.13	1185.77
309.34	1284.08
309.55	1224.69
309.76	1232.88
309.97	1230.83
310.19	1198.06
310.40	1236.97
310.61	1290.22
310.82	1236.97
311.04	1183.73
311.25	1234.93
311.46	1236.97
311.67	1228.78
311.88	1292.27
312.10	1228.78
312.31	1224.69
312.52	1284.08
312.73	1220.59
312.94	1181.68
313.16	1259.50
313.37	1204.21
313.58	1218.54
313.79	1329.13
314.00	1202.16
314.22	1296.36
314.43	1257.45
314.64	1224.69
314.85	1308.65
315.06	1187.82
315.27	1224.69
315.49	1300.46
315.70	1239.02
315.91	1232.88
316.12	1157.10
316.33	1232.88
316.55	1261.55
316.76	1275.88
316.97	1220.59
317.18	1234.93
317.39	1245.16
317.60	1224.69
317.82	1279.98
318.03	1275.88
318.24	1177.58
318.45	1263.60
318.66	1228.78
318.88	1234.93
319.09	1269.74
319.30	1214.45
319.51	1191.92
319.72	1216.49
319.93	1183.73
320.15	1241.07
320.36	1228.78
320.57	1208.30
320.78	1271.79
320.99	1245.16
321.20	1118.19
321.41	1204.21
321.63	1230.83
321.84	1148.91
322.05	1198.06
322.26	1265.64
322.47	1216.49
322.68	1220.59
322.90	1144.81
323.11	1271.79
323.32	1196.01
323.53	1243.12
323.74	1239.02
323.95	1198.06
324.16	1300.46
324.38	1212.40
324.59	1183.73
324.80	1179.63
325.01	1222.64
325.22	1243.12
325.43	1247.21
325.64	1234.93
325.85	1077.23
326.07	1216.49
326.28	1243.12
326.49	1241.07
326.70	1200.11
326.91	1300.46
327.12	1267.69
327.33	1216.49
327.54	1226.73
327.76	1167.34
327.97	1273.84
328.18	1290.22
328.39	1196.01
328.60	1236.97
328.81	1183.73
329.02	1212.40
329.23	1222.64
329.45	1218.54
329.66	1292.27
329.87	1187.82
330.08	1208.30
330.29	1216.49
330.50	1236.97
330.71	1218.54
330.92	1228.78
331.13	1253.36
331.34	1191.92
331.56	1251.31
331.77	1218.54
331.98	1239.02
332.19	1232.88
332.40	1206.25
332.61	1251.31
332.82	1255.40
333.03	1298.41
333.24	1275.88
333.45	1222.64
333.67	1255.40
333.88	1198.06
334.09	1259.50
334.30	1236.97
334.51	1232.88
334.72	1163.25
334.93	1263.60
335.14	1257.45
335.35	1198.06
335.56	1191.92
335.77	1239.02
335.98	1271.79
336.19	1249.26
336.41	1216.49
336.62	1218.54
336.83	1284.08
337.04	1236.97
337.25	1159.15
337.46	1271.79
337.67	1193.97
337.88	1206.25
338.09	1228.78
338.30	1255.40
338.51	1236.97
338.72	1284.08
338.93	1202.16
339.14	1200.11
339.35	1267.69
339.57	1171.44
339.78	1191.92
339.99	1234.93
340.20	1236.97
340.41	1187.82
340.62	1173.49
340.83	1355.76
341.04	1134.57
341.25	1218.54
341.46	1193.97
341.67	1163.25
341.88	1269.74
342.09	1234.93
342.30	1239.02
342.51	1110.00
342.72	1232.88
342.93	1245.16
343.14	1204.21
343.35	1226.73
343.56	1234.93
343.77	1247.21
343.98	1196.01
344.19	1273.84
344.41	1236.97
344.62	1228.78
344.83	1200.11
345.04	1204.21
345.25	1177.58
345.46	1210.35
345.67	1196.01
345.88	1259.50
346.09	1308.65
346.30	1181.68
346.51	1279.98
346.72	1222.64
346.93	1232.88
347.14	1193.97
347.35	1220.59
347.56	1245.16
347.77	1208.30
347.98	1210.35
348.19	1222.64
348.40	1284.08
348.61	1204.21
348.82	1269.74
349.03	1247.21
349.24	1187.82
349.45	1206.25
349.66	1267.69
349.87	1214.45
350.08	1206.25
350.29	1202.16
350.50	1230.83
350.71	1212.40
350.92	1234.93
351.13	1300.46
351.34	1286.12
351.55	1187.82
351.76	1241.07
351.97	1220.59
352.18	1226.73
352.39	1220.59
352.60	1206.25
352.81	1228.78
353.02	1312.75
353.23	1249.26
353.44	1296.36
353.65	1253.36
353.86	1173.49
354.07	1150.96
354.28	1198.06
354.49	1267.69
354.70	1216.49
354.90	1222.64
355.11	1306.60
355.32	1181.68
355.53	1249.26
355.74	1224.69
355.95	1245.16
356.16	1165.29
356.37	1255.40
356.58	1234.93
356.79	1273.84
357.00	1230.83
357.21	1181.68
357.42	1196.01
357.63	1228.78
357.84	1279.98
358.05	1193.97
358.26	1318.89
358.47	1308.65
358.68	1165.29
358.89	1247.21
359.10	1273.84
359.31	1185.77
359.52	1275.88
359.73	1216.49
359.93	1173.49
360.14	1273.84
360.35	1198.06
360.56	1257.45
360.77	1200.11
360.98	1185.77
361.19	1181.68
361.40	1261.55
361.61	1261.55
361.82	1257.45
362.03	1142.77
362.24	1220.59
362.45	1198.06
362.66	1279.98
362.87	1198.06
363.07	1228.78
363.28	1202.16
363.49	1175.53
363.70	1296.36
363.91	1275.88
364.12	1185.77
364.33	1251.31
364.54	1261.55
364.75	1212.40
364.96	1253.36
365.17	1269.74
365.38	1167.34
365.58	1232.88
365.79	1259.50
366.00	1232.88
366.21	1226.73
366.42	1226.73
366.63	1255.40
366.84	1183.73
367.05	1171.44
367.26	1255.40
367.47	1183.73
367.67	1218.54
367.88	1214.45
368.09	1218.54
368.30	1204.21
368.51	1275.88
368.72	1210.35
368.93	1239.02
369.14	1230.83
369.35	1298.41
369.56	1259.50
369.76	1241.07
369.97	1228.78
370.18	1210.35
370.39	1187.82
370.60	1208.30
370.81	1261.55
371.02	1298.41
371.23	1222.64
371.43	1241.07
371.64	1140.72
371.85	1210.35
372.06	1228.78
372.27	1179.63
372.48	1204.21
372.69	1243.12
372.90	1247.21
373.10	1310.70
373.31	1208.30
373.52	1294.32
373.73	1232.88
373.94	1210.35
374.15	1247.21
374.36	1239.02
374.56	1202.16
374.77	1253.36
374.98	1234.93
375.19	1241.07
375.40	1253.36
375.61	1232.88
375.82	1222.64
376.02	1169.39
376.23	1318.89
376.44	1251.31
376.65	1234.93
376.86	1253.36
377.07	1226.73
377.28	1234.93
377.48	1236.97
377.69	1261.55
377.90	1167.34
378.11	1247.21
378.32	1206.25
378.53	1316.84
378.73	1157.10
378.94	1216.49
379.15	1214.45
379.36	1322.99
379.57	1200.11
379.78	1243.12
379.98	1183.73
380.19	1202.16
380.40	1308.65
380.61	1269.74
380.82	1253.36
381.03	1286.12
381.23	1253.36
381.44	1241.07
381.65	1239.02
381.86	1169.39
382.07	1232.88
382.27	1171.44
382.48	1249.26
382.69	1224.69
382.90	1263.60
383.11	1216.49
383.32	1243.12
383.52	1329.13
383.73	1175.53
383.94	1255.40
384.15	1212.40
384.36	1206.25
384.56	1263.60
384.77	1290.22
384.98	1220.59
385.19	1263.60
385.40	1214.45
385.60	1267.69
385.81	1245.16
386.02	1212.40
386.23	1206.25
386.43	1259.50
386.64	1247.21
386.85	1122.29
387.06	1271.79
387.27	1171.44
387.47	1185.77
387.68	1271.79
387.89	1232.88
388.10	1191.92
388.31	1181.68
388.51	1224.69
388.72	1249.26
388.93	1200.11
389.14	1202.16
389.34	1214.45
389.55	1290.22
389.76	1187.82
389.97	1191.92
390.18	1226.73
390.38	1284.08
390.59	1249.26
390.80	1191.92
391.01	1245.16
391.21	1310.70
391.42	1222.64
391.63	1202.16
391.84	1263.60
392.04	1202.16
392.25	1226.73
392.46	1171.44
392.67	1273.84
392.87	1191.92
393.08	1169.39
393.29	1230.83
393.50	1286.12
393.70	1212.40
393.91	1241.07
394.12	1282.03
394.33	1177.58
394.53	1259.50
394.74	1216.49
394.95	1185.77
395.16	1216.49
395.36	1234.93
395.57	1228.78
395.78	1232.88
395.99	1261.55
396.19	1284.08
396.40	1228.78
396.61	1210.35
396.81	1228.78
397.02	1271.79
397.23	1202.16
397.44	1300.46
397.64	1210.35
397.85	1216.49
398.06	1218.54
398.27	1245.16
398.47	1232.88
398.68	1228.78
398.89	1230.83
399.09	1220.59
399.30	1263.60
399.51	1273.84
399.72	1159.15
399.92	1236.97
400.13	1230.83
400.34	1224.69
400.54	1224.69
400.75	1236.97
400.96	1146.86
401.17	1255.40
401.37	1132.53
401.58	1232.88
401.79	1224.69
401.99	1292.27
402.20	1187.82
402.41	1226.73
402.61	1198.06
402.82	1189.87
403.03	1253.36
403.24	1208.30
403.44	1257.45
403.65	1214.45
403.86	1202.16
404.06	1251.31
404.27	1136.62
404.48	1220.59
404.68	1308.65
404.89	1282.03
405.10	1288.17
405.30	1286.12
405.51	1210.35
405.72	1218.54
405.92	1245.16
406.13	1261.55
406.34	1185.77
406.54	1251.31
406.75	1220.59
406.96	1210.35
407.16	1198.06
407.37	1218.54
407.58	1189.87
407.78	1245.16
407.99	1228.78
408.20	1212.40
408.40	1206.25
408.61	1214.45
408.82	1198.06
409.02	1189.87
409.23	1271.79
409.44	1255.40
409.64	1193.97
409.85	1206.25
410.06	1222.64
410.26	1224.69
410.47	1243.12
410.68	1271.79
410.88	1251.31
411.09	1208.30
411.30	1290.22
411.50	1228.78
411.71	1236.97
411.91	1236.97
412.12	1263.60
412.33	1204.21
412.53	1196.01
412.74	1202.16
412.95	1200.11
413.15	1255.40
413.36	1161.20
413.57	1294.32
413.77	1200.11
413.98	1232.88
414.18	1288.17
414.39	1306.60
414.60	1271.79
414.80	1185.77
415.01	1263.60
415.22	1181.68
415.42	1228.78
415.63	1236.97
415.83	1263.60
416.04	1177.58
416.25	1202.16
416.45	1210.35
416.66	1241.07
416.86	1247.21
417.07	1206.25
417.28	1218.54
417.48	1226.73
417.69	1259.50
417.89	1298.41
418.10	1189.87
418.31	1228.78
418.51	1249.26
418.72	1292.27
418.92	1214.45
419.13	1191.92
419.34	1224.69
419.54	1224.69
419.75	1230.83
419.95	1261.55
420.16	1226.73
420.37	1196.01
420.57	1273.84
420.78	1228.78
420.98	1261.55
421.19	1226.73
421.40	1196.01
421.60	1286.12
421.81	1288.17
422.01	1236.97
422.22	1202.16
422.42	1161.20
422.63	1241.07
422.84	1255.40
423.04	1253.36
423.25	1224.69
423.45	1216.49
423.66	1310.70
423.86	1247.21
424.07	1228.78
424.28	1210.35
424.48	1177.58
424.69	1196.01
424.89	1200.11
425.10	1292.27
425.30	1224.69
425.51	1224.69
425.72	1196.01
425.92	1241.07
426.13	1234.93
426.33	1257.45
426.54	1226.73
426.74	1275.88
426.95	1277.93
427.15	1204.21
427.36	1234.93
427.56	1206.25
427.77	1253.36
427.98	1218.54
428.18	1245.16
428.39	1253.36
428.59	1191.92
428.80	1228.78
429.00	1275.88
429.21	1224.69
429.41	1167.34
429.62	1157.10
429.82	1267.69
430.03	1316.84
430.23	1234.93
430.44	1187.82
430.65	1255.40
430.85	1273.84
431.06	1220.59
431.26	1241.07
431.47	1271.79
431.67	1241.07
431.88	1232.88
432.08	1284.08
432.29	1302.51
432.49	1220.59
432.70	1204.21
432.90	1202.16
433.11	1245.16
433.31	1245.16
433.52	1167.34
433.72	1249.26
433.93	1222.64
434.13	1169.39
434.34	1232.88
434.54	1187.82
434.75	1230.83
434.95	1183.73
435.16	1196.01
435.36	1132.53
435.57	1230.83
435.77	1198.06
435.98	1153.01
436.18	1261.55
436.39	1284.08
436.59	1271.79
436.80	1236.97
437.00	1204.21
437.21	1243.12
437.41	1277.93
437.62	1263.60
437.82	1189.87
438.03	1189.87
438.23	1257.45
438.44	1271.79
438.64	1230.83
438.85	1204.21
439.05	1251.31
439.25	1200.11
439.46	1247.21
439.66	1187.82
439.87	1228.78
440.07	1224.69
440.28	1196.01
440.48	1144.81
440.69	1247.21
440.89	1277.93
441.10	1232.88
441.30	1177.58
441.51	1226.73
441.71	1185.77
441.92	1198.06
442.12	1208.30
442.32	1239.02
442.53	1189.87
442.73	1239.02
442.94	1173.49
443.14	1241.07
443.35	1189.87
443.55	1271.79
443.76	1226.73
443.96	1171.44
444.16	1279.98
444.37	1226.73
444.57	1269.74
444.78	1214.45
444.98	1167.34
445.19	1134.57
445.39	1261.55
445.60	1255.40
445.80	1220.59
446.00	1222.64
446.21	1261.55
446.41	1222.64
446.62	1302.51
446.82	1191.92
447.03	1214.45
447.23	1185.77
447.43	1259.50
447.64	1202.16
447.84	1234.93
448.05	1257.45
448.25	1261.55
448.45	1163.25
448.66	1236.97
448.86	1212.40
449.07	1245.16
449.27	1318.89
449.48	1200.11
449.68	1210.35
449.88	1175.53
450.09	1232.88
450.29	1259.50
450.50	1200.11
450.70	1191.92
450.90	1210.35
451.11	1169.39
451.31	1226.73
451.52	1232.88
451.72	1191.92
451.92	1255.40
452.13	1251.31
452.33	1265.64
452.54	1193.97
452.74	1236.97
452.94	1247.21
453.15	1210.35
453.35	1210.35
453.55	1198.06
453.76	1220.59
453.96	1169.39
454.17	1243.12
454.37	1261.55
454.57	1214.45
454.78	1153.01
454.98	1218.54
455.19	1193.97
455.39	1288.17
455.59	1263.60
455.80	1218.54
456.00	1275.88
456.20	1193.97
456.41	1232.88
456.61	1269.74
456.81	1208.30
457.02	1245.16
457.22	1214.45
457.43	1206.25
457.63	1261.55
457.83	1269.74
458.04	1224.69
458.24	1216.49
458.44	1245.16
458.65	1187.82
458.85	1259.50
459.05	1273.84
459.26	1255.40
459.46	1224.69
459.66	1284.08
459.87	1261.55
460.07	1253.36
460.27	1202.16
460.48	1294.32
460.68	1261.55
460.88	1288.17
461.09	1236.97
461.29	1239.02
461.49	1236.97
461.70	1226.73
461.90	1130.48
462.10	1243.12
462.31	1183.73
462.51	1220.59
462.71	1239.02
462.92	1347.56
463.12	1181.68
463.32	1243.12
463.53	1261.55
463.73	1290.22
463.93	1214.45
464.14	1189.87
464.34	1249.26
464.54	1247.21
464.75	1236.97
464.95	1224.69
465.15	1310.70
465.36	1302.51
465.56	1161.20
465.76	1286.12
465.96	1202.16
466.17	1220.59
466.37	1234.93
466.57	1222.64
466.78	1191.92
466.98	1232.88
467.18	1198.06
467.39	1232.88
467.59	1232.88
467.79	1191.92
467.99	1243.12
468.20	1247.21
468.40	1142.77
468.60	1234.93
468.81	1247.21
469.01	1236.97
469.21	1206.25
469.41	1263.60
469.62	1208.30
469.82	1284.08
470.02	1181.68
470.23	1257.45
470.43	1249.26
470.63	1185.77
470.83	1196.01
471.04	1288.17
471.24	1236.97
471.44	1140.72
471.65	1249.26
471.85	1290.22
472.05	1204.21
472.25	1271.79
472.46	1267.69
472.66	1222.64
472.86	1187.82
473.06	1279.98
473.27	1257.45
473.47	1189.87
473.67	1267.69
473.87	1230.83
474.08	1316.84
474.28	1253.36
474.48	1230.83
474.68	1212.40
474.89	1226.73
475.09	1234.93
475.29	1187.82
475.49	1251.31
475.70	1204.21
475.90	1234.93
476.10	1193.97
476.30	1206.25
476.51	1222.64
476.71	1255.40
476.91	1161.20
477.11	1222.64
477.32	1294.32
477.52	1204.21
477.72	1230.83
477.92	1214.45
478.12	1245.16
478.33	1214.45
478.53	1269.74
478.73	1232.88
478.93	1234.93
479.14	1208.30
479.34	1271.79
479.54	1298.41
479.74	1165.29
479.94	1185.77
480.15	1245.16
480.35	1245.16
480.55	1206.25
480.75	1273.84
480.96	1220.59
481.16	1318.89
481.36	1247.21
481.56	1259.50
481.76	1241.07
481.97	1312.75
482.17	1228.78
482.37	1175.53
482.57	1222.64
482.77	1181.68
482.98	1177.58
483.18	1206.25
483.38	1224.69
483.58	1226.73
483.78	1189.87
483.98	1169.39
484.19	1236.97
484.39	1247.21
484.59	1212.40
484.79	1218.54
484.99	1165.29
485.20	1165.29
485.40	1224.69
485.60	1363.95
485.80	1198.06
486.00	1216.49
486.20	1269.74
486.41	1277.93
486.61	1196.01
486.81	1189.87
487.01	1193.97
487.21	1173.49
487.42	1236.97
487.62	1239.02
487.82	1273.84
488.02	1218.54
488.22	1220.59
488.42	1284.08
488.62	1292.27
488.83	1263.60
489.03	1214.45
489.23	1316.84
489.43	1220.59
489.63	1282.03
489.83	1171.44
490.04	1224.69
490.24	1230.83
490.44	1261.55
490.64	1189.87
490.84	1271.79
491.04	1196.01
491.24	1210.35
491.45	1202.16
491.65	1267.69
491.85	1243.12
492.05	1208.30
492.25	1269.74
492.45	1282.03
492.65	1185.77
492.86	1286.12
493.06	1282.03
493.26	1236.97
493.46	1191.92
493.66	1243.12
493.86	1236.97
494.06	1183.73
494.26	1282.03
494.47	1198.06
494.67	1279.98
494.87	1249.26
495.07	1157.10
495.27	1234.93
495.47	1279.98
495.67	1169.39
495.87	1224.69
496.07	1296.36
496.28	1185.77
496.48	1230.83
496.68	1251.31
496.88	1245.16
497.08	1255.40
497.28	1290.22
497.48	1214.45
497.68	1234.93
497.88	1228.78
498.08	1189.87
498.29	1204.21
498.49	1257.45
498.69	1228.78
498.89	1204.21
499.09	1171.44
499.29	1163.25
499.49	1228.78
499.69	1259.50
499.89	1204.21
500.09	1232.88
500.29	1218.54
500.50	1236.97
500.70	1251.31
500.90	1259.50
501.10	1294.32
501.30	1167.34
501.50	1230.83
501.70	1267.69
501.90	1316.84
502.10	1249.26
502.30	1255.40
502.50	1284.08
502.70	1208.30
502.90	1230.83
503.10	1224.69
503.31	1191.92
503.51	1247.21
503.71	1333.23
503.91	1236.97
504.11	1187.82
504.31	1171.44
504.51	1275.88
504.71	1183.73
504.91	1206.25
505.11	1279.98
505.31	1206.25
505.51	1257.45
505.71	1286.12
505.91	1191.92
506.11	1206.25
506.31	1314.80
506.51	1232.88
506.71	1255.40
506.91	1148.91
507.11	1261.55
507.31	1308.65
507.51	1320.94
507.72	1191.92
507.92	1263.60
508.12	1241.07
508.32	1214.45
508.52	1196.01
508.72	1208.30
508.92	1282.03
509.12	1206.25
509.32	1247.21
509.52	1218.54
509.72	1187.82
509.92	1118.19
510.12	1249.26
510.32	1226.73
510.52	1302.51
510.72	1226.73
510.92	1236.97
511.12	1282.03
511.32	1290.22
511.52	1218.54
511.72	1329.13
511.92	1196.01
512.12	1282.03
512.32	1177.58
512.52	1308.65
512.72	1187.82
512.92	1236.97
513.12	1218.54
513.32	1200.11
513.52	1218.54
513.72	1263.60
513.92	1255.40
514.12	1271.79
514.32	1216.49
514.52	1249.26
514.72	1253.36
514.92	1236.97
515.12	1230.83
515.32	1290.22
515.52	1208.30
515.72	1255.40
515.92	1228.78
516.12	1214.45
516.32	1220.59
516.52	1224.69
516.72	1202.16
516.92	1212.40
517.12	1249.26
517.32	1179.63
517.51	1173.49
517.71	1208.30
517.91	1198.06
518.11	1171.44
518.31	1216.49
518.51	1253.36
518.71	1288.17
518.91	1363.95
519.11	1249.26
519.31	1343.47
519.51	1261.55
519.71	1214.45
519.91	1222.64
520.11	1163.25
520.31	1245.16
520.51	1245.16
520.71	1257.45
520.91	1253.36
521.11	1216.49
521.31	1230.83
521.51	1224.69
521.70	1263.60
521.90	1251.31
522.10	1243.12
522.30	1241.07
522.50	1236.97
522.70	1300.46
522.90	1198.06
523.10	1196.01
523.30	1253.36
523.50	1208.30
523.70	1243.12
523.90	1220.59
524.10	1226.73
524.30	1187.82
524.49	1255.40
524.69	1269.74
524.89	1300.46
525.09	1202.16
525.29	1218.54
525.49	1198.06
525.69	1271.79
525.89	1202.16
526.09	1159.15
526.29	1224.69
526.49	1243.12
526.68	1214.45
526.88	1220.59
527.08	1228.78
527.28	1286.12
527.48	1343.47
527.68	1284.08
527.88	1157.10
528.08	1294.32
528.28	1214.45
528.48	1271.79
528.67	1204.21
528.87	1218.54
529.07	1218.54
529.27	1183.73
529.47	1226.73
529.67	1218.54
529.87	1265.64
530.07	1253.36
530.26	1286.12
530.46	1239.02
530.66	1208.30
530.86	1236.97
531.06	1228.78
531.26	1271.79
531.46	1327.08
531.66	1243.12
531.85	1279.98
532.05	1255.40
532.25	1243.12
532.45	1288.17
532.65	1245.16
532.85	1288.17
533.05	1171.44
533.25	1226.73
533.44	1204.21
533.64	1181.68
533.84	1202.16
534.04	1263.60
534.24	1218.54
534.44	1218.54
534.63	1226.73
534.83	1228.78
535.03	1216.49
535.23	1204.21
535.43	1228.78
535.63	1226.73
535.83	1218.54
536.02	1142.77
536.22	1234.93
536.42	1249.26
536.62	1161.20
536.82	1179.63
537.02	1230.83
537.21	1210.35
537.41	1288.17
537.61	1245.16
537.81	1224.69
538.01	1279.98
538.21	1179.63
538.40	1212.40
538.60	1239.02
538.80	1218.54
539.00	1239.02
539.20	1267.69
539.39	1249.26
539.59	1290.22
539.79	1392.62
539.99	1282.03
540.19	1294.32
540.39	1310.70
540.58	1341.42
540.78	1374.19
540.98	1339.37
541.18	1351.66
541.38	1423.34
541.57	1415.15
541.77	1398.76
541.97	1372.14
542.17	1470.44
542.37	1529.83
542.56	1392.62
542.76	1460.20
542.96	1468.39
543.16	1507.30
543.35	1388.52
543.55	1425.39
543.75	1411.05
543.95	1398.76
544.15	1501.16
544.34	1480.68
544.54	1449.96
544.74	1482.73
544.94	1535.98
545.14	1427.43
545.33	1400.81
545.53	1449.96
545.73	1406.95
545.93	1380.33
546.12	1372.14
546.32	1343.47
546.52	1384.43
546.72	1279.98
546.91	1290.22
547.11	1370.09
547.31	1366.00
547.51	1361.90
547.70	1251.31
547.90	1306.60
548.10	1318.89
548.30	1384.43
548.50	1345.52
548.69	1288.17
548.89	1308.65
549.09	1296.36
549.29	1329.13
549.48	1294.32
549.68	1261.55
549.88	1286.12
550.07	1355.76
550.27	1234.93
550.47	1343.47
550.67	1347.56
550.86	1271.79
551.06	1189.87
551.26	1212.40
551.46	1337.32
551.65	1273.84
551.85	1290.22
552.05	1255.40
552.25	1220.59
552.44	1247.21
552.64	1300.46
552.84	1302.51
553.03	1245.16
553.23	1265.64
553.43	1243.12
553.63	1273.84
553.82	1308.65
554.02	1208.30
554.22	1288.17
554.41	1331.18
554.61	1181.68
554.81	1255.40
555.01	1204.21
555.20	1255.40
555.40	1159.15
555.60	1239.02
555.79	1261.55
555.99	1210.35
556.19	1269.74
556.38	1245.16
556.58	1255.40
556.78	1255.40
556.98	1249.26
557.17	1243.12
557.37	1222.64
557.57	1232.88
557.76	1277.93
557.96	1269.74
558.16	1279.98
558.35	1261.55
558.55	1259.50
558.75	1284.08
558.94	1234.93
559.14	1200.11
559.34	1275.88
559.53	1228.78
559.73	1267.69
559.93	1214.45
560.12	1198.06
560.32	1325.04
560.52	1243.12
560.71	1286.12
560.91	1193.97
561.11	1247.21
561.30	1222.64
561.50	1230.83
561.70	1177.58
561.89	1193.97
562.09	1277.93
562.29	1220.59
562.48	1245.16
562.68	1183.73
562.88	1255.40
563.07	1222.64
563.27	1185.77
563.47	1259.50
563.66	1306.60
563.86	1198.06
564.06	1173.49
564.25	1265.64
564.45	1171.44
564.64	1251.31
564.84	1249.26
565.04	1249.26
565.23	1265.64
565.43	1191.92
565.63	1249.26
565.82	1296.36
566.02	1257.45
566.22	1228.78
566.41	1245.16
566.61	1169.39
566.80	1290.22
567.00	1273.84
567.20	1208.30
567.39	1210.35
567.59	1234.93
567.78	1173.49
567.98	1169.39
568.18	1202.16
568.37	1228.78
568.57	1236.97
568.77	1327.08
568.96	1222.64
569.16	1222.64
569.35	1189.87
569.55	1282.03
569.75	1222.64
569.94	1273.84
570.14	1290.22
570.33	1216.49
570.53	1245.16
570.73	1322.99
570.92	1269.74
571.12	1251.31
571.31	1261.55
571.51	1232.88
571.71	1247.21
571.90	1232.88
572.10	1253.36
572.29	1236.97
572.49	1202.16
572.68	1216.49
572.88	1275.88
573.08	1261.55
573.27	1200.11
573.47	1185.77
573.66	1284.08
573.86	1210.35
574.05	1261.55
574.25	1191.92
574.45	1269.74
574.64	1198.06
574.84	1179.63
575.03	1261.55
575.23	1239.02
575.42	1300.46
575.62	1284.08
575.82	1277.93
576.01	1275.88
576.21	1243.12
576.40	1171.44
576.60	1243.12
576.79	1263.60
576.99	1196.01
577.18	1249.26
577.38	1269.74
577.57	1255.40
577.77	1243.12
577.97	1226.73
578.16	1290.22
578.36	1288.17
578.55	1247.21
578.75	1275.88
578.94	1282.03
579.14	1273.84
579.33	1286.12
579.53	1251.31
579.72	1351.66
579.92	1310.70
580.11	1308.65
580.31	1318.89
580.50	1372.14
580.70	1318.89
580.90	1318.89
581.09	1271.79
581.29	1255.40
581.48	1314.80
581.68	1251.31
581.87	1263.60
582.07	1312.75
582.26	1224.69
582.46	1251.31
582.65	1355.76
582.85	1339.37
583.04	1327.08
583.24	1232.88
583.43	1325.04
583.63	1269.74
583.82	1312.75
584.02	1298.41
584.21	1247.21
584.41	1298.41
584.60	1269.74
584.80	1284.08
584.99	1331.18
585.19	1273.84
585.38	1247.21
585.58	1316.84
585.77	1277.93
585.97	1318.89
586.16	1359.85
586.35	1298.41
586.55	1284.08
586.74	1318.89
586.94	1302.51
587.13	1253.36
587.33	1239.02
587.52	1312.75
587.72	1312.75
587.91	1259.50
588.11	1284.08
588.30	1310.70
588.50	1269.74
588.69	1251.31
588.89	1247.21
589.08	1241.07
589.28	1380.33
589.47	1286.12
589.66	1255.40
589.86	1320.94
590.05	1343.47
590.25	1335.28
590.44	1191.92
590.64	1239.02
590.83	1245.16
591.03	1216.49
591.22	1267.69
591.41	1208.30
591.61	1261.55
591.80	1331.18
592.00	1294.32
592.19	1269.74
592.39	1290.22
592.58	1241.07
592.78	1310.70
592.97	1228.78
593.16	1224.69
593.36	1331.18
593.55	1253.36
593.75	1263.60
593.94	1282.03
594.14	1277.93
594.33	1275.88
594.52	1148.91
594.72	1251.31
594.91	1202.16
595.11	1288.17
595.30	1282.03
595.49	1247.21
595.69	1163.25
595.88	1196.01
596.08	1267.69
596.27	1236.97
596.47	1282.03
596.66	1161.20
596.85	1241.07
597.05	1214.45
597.24	1282.03
597.44	1216.49
597.63	1329.13
597.82	1286.12
598.02	1288.17
598.21	1208.30
598.40	1282.03
598.60	1339.37
598.79	1259.50
598.99	1204.21
599.18	1251.31
599.37	1241.07
599.57	1234.93
599.76	1300.46
599.96	1232.88
600.15	1222.64
600.34	1267.69
600.54	1329.13
600.73	1341.42
600.92	1279.98
601.12	1300.46
601.31	1325.04
601.51	1208.30
601.70	1232.88
601.89	1273.84
602.09	1263.60
602.28	1380.33
602.47	1261.55
602.67	1216.49
602.86	1241.07
603.05	1232.88
603.25	1187.82
603.44	1232.88
603.63	1222.64
603.83	1198.06
604.02	1288.17
604.22	1320.94
604.41	1239.02
604.60	1265.64
604.80	1241.07
604.99	1327.08
605.18	1288.17
605.38	1200.11
605.57	1269.74
605.76	1261.55
605.96	1259.50
606.15	1179.63
606.34	1230.83
606.54	1251.31
606.73	1261.55
606.92	1275.88
607.12	1218.54
607.31	1288.17
607.50	1239.02
607.70	1249.26
607.89	1247.21
608.08	1263.60
608.28	1333.23
608.47	1306.60
608.66	1243.12
608.85	1234.93
609.05	1394.67
609.24	1302.51
609.43	1374.19
609.63	1363.95
609.82	1402.86
610.01	1503.21
610.21	1492.97
610.40	1497.07
610.59	1499.11
610.79	1484.78
610.98	1441.77
611.17	1417.19
611.36	1458.15
611.56	1355.76
611.75	1462.25
611.94	1349.61
612.14	1394.67
612.33	1341.42
612.52	1347.56
612.71	1359.85
612.91	1341.42
613.10	1357.80
613.29	1329.13
613.49	1298.41
613.68	1361.90
613.87	1290.22
614.06	1353.71
614.26	1329.13
614.45	1230.83
614.64	1349.61
614.83	1325.04
615.03	1320.94
615.22	1306.60
615.41	1204.21
615.60	1294.32
615.80	1282.03
615.99	1333.23
616.18	1255.40
616.38	1245.16
616.57	1234.93
616.76	1261.55
616.95	1335.28
617.15	1261.55
617.34	1255.40
617.53	1286.12
617.72	1191.92
617.92	1294.32
618.11	1214.45
618.30	1282.03
618.49	1224.69
618.68	1261.55
618.88	1193.97
619.07	1275.88
619.26	1267.69
619.45	1212.40
619.65	1292.27
619.84	1308.65
620.03	1249.26
620.22	1282.03
620.42	1255.40
620.61	1222.64
620.80	1216.49
620.99	1202.16
621.18	1327.08
621.38	1234.93
621.57	1226.73
621.76	1286.12
621.95	1269.74
622.15	1294.32
622.34	1273.84
622.53	1306.60
622.72	1282.03
622.91	1185.77
623.11	1300.46
623.30	1245.16
623.49	1173.49
623.68	1253.36
623.87	1318.89
624.07	1261.55
624.26	1179.63
624.45	1271.79
624.64	1273.84
624.83	1216.49
625.03	1298.41
625.22	1171.44
625.41	1251.31
625.60	1251.31
625.79	1232.88
625.98	1187.82
626.18	1271.79
626.37	1224.69
626.56	1288.17
626.75	1265.64
626.94	1279.98
627.14	1245.16
627.33	1247.21
627.52	1267.69
627.71	1255.40
627.90	1271.79
628.09	1181.68
628.29	1185.77
628.48	1243.12
628.67	1232.88
628.86	1239.02
629.05	1234.93
629.24	1257.45
629.43	1259.50
629.63	1318.89
629.82	1202.16
630.01	1286.12
630.20	1247.21
630.39	1273.84
630.58	1257.45
630.78	1179.63
630.97	1243.12
631.16	1243.12
631.35	1279.98
631.54	1189.87
631.73	1224.69
631.92	1296.36
632.11	1157.10
632.31	1230.83
632.50	1189.87
632.69	1218.54
632.88	1253.36
633.07	1261.55
633.26	1230.83
633.45	1224.69
633.65	1241.07
633.84	1255.40
634.03	1298.41
634.22	1247.21
634.41	1202.16
634.60	1212.40
634.79	1232.88
634.98	1140.72
635.17	1249.26
635.37	1177.58
635.56	1273.84
635.75	1245.16
635.94	1177.58
636.13	1200.11
636.32	1212.40
636.51	1247.21
636.70	1128.43
636.89	1259.50
637.08	1204.21
637.28	1236.97
637.47	1236.97
637.66	1210.35
637.85	1196.01
638.04	1200.11
638.23	1206.25
638.42	1273.84
638.61	1267.69
638.80	1255.40
638.99	1234.93
639.18	1179.63
639.38	1251.31
639.57	1275.88
639.76	1165.29
639.95	1212.40
640.14	1265.64
640.33	1304.56
640.52	1187.82
640.71	1214.45
640.90	1247.21
641.09	1228.78
641.28	1249.26
641.47	1257.45
641.66	1261.55
641.85	1214.45
642.04	1236.97
642.24	1183.73
642.43	1253.36
642.62	1556.46
642.81	1251.31
643.00	1249.26
643.19	1204.21
643.38	1220.59
643.57	1179.63
643.76	1277.93
643.95	1208.30
644.14	1253.36
644.33	1206.25
644.52	1255.40
644.71	1269.74
644.90	1273.84
645.09	1228.78
645.28	1230.83
645.47	1183.73
645.66	1198.06
645.85	1288.17
646.04	1239.02
646.23	1220.59
646.42	1200.11
646.61	1253.36
646.80	1226.73
646.99	1202.16
647.18	1196.01
647.37	1228.78
647.56	1269.74
647.75	1196.01
647.95	1183.73
648.14	1218.54
648.33	1208.30
648.52	1265.64
648.71	1181.68
648.90	1191.92
649.09	1249.26
649.28	1269.74
649.47	1189.87
649.66	1277.93
649.85	1222.64
650.04	1345.52
650.23	1206.25
650.42	1136.62
650.61	1226.73
650.79	1202.16
650.98	1265.64
651.17	1251.31
651.36	1175.53
651.55	1214.45
651.74	1224.69
651.93	1269.74
652.12	1220.59
652.31	1234.93
652.50	1243.12
652.69	1232.88
652.88	1253.36
653.07	1302.51
653.26	1241.07
653.45	1310.70
653.64	1187.82
653.83	1294.32
654.02	1232.88
654.21	1241.07
654.40	1175.53
654.59	1230.83
654.78	1171.44
654.97	1206.25
655.16	1124.33
655.35	1232.88
655.54	1173.49
655.73	1243.12
655.92	1185.77
656.11	1193.97
656.30	1275.88
656.48	1253.36
656.67	1183.73
656.86	1241.07
657.05	1171.44
657.24	1241.07
657.43	1257.45
657.62	1236.97
657.81	1275.88
658.00	1259.50
658.19	1167.34
658.38	1189.87
658.57	1210.35
658.76	1284.08
658.95	1214.45
659.13	1220.59
659.32	1243.12
659.51	1298.41
659.70	1198.06
659.89	1196.01
660.08	1273.84
660.27	1165.29
660.46	1245.16
660.65	1257.45
660.84	1241.07
661.03	1224.69
661.22	1236.97
661.40	1236.97
661.59	1224.69
661.78	1263.60
661.97	1216.49
662.16	1216.49
662.35	1245.16
662.54	1236.97
662.73	1286.12
662.92	1208.30
663.11	1200.11
663.29	1327.08
663.48	1236.97
663.67	1214.45
663.86	1298.41
664.05	1279.98
664.24	1316.84
664.43	1179.63
664.62	1275.88
664.80	1290.22
664.99	1253.36
665.18	1200.11
665.37	1308.65
665.56	1167.34
665.75	1269.74
665.94	1212.40
666.13	1214.45
666.31	1236.97
666.50	1234.93
666.69	1255.40
666.88	1277.93
667.07	1212.40
667.26	1200.11
667.45	1214.45
667.63	1271.79
667.82	1249.26
668.01	1243.12
668.20	1259.50
668.39	1159.15
668.58	1226.73
668.76	1179.63
668.95	1222.64
669.14	1216.49
669.33	1234.93
669.52	1230.83
669.71	1218.54
669.90	1185.77
670.08	1277.93
670.27	1308.65
670.46	1226.73
670.65	1204.21
670.84	1255.40
671.03	1284.08
671.21	1234.93
671.40	1210.35
671.59	1249.26
671.78	1290.22
671.97	1277.93
672.15	1212.40
672.34	1236.97
672.53	1253.36
672.72	1110.00
672.91	1165.29
673.09	1216.49
673.28	1214.45
673.47	1232.88
673.66	1253.36
673.85	1310.70
674.04	1177.58
674.22	1284.08
674.41	1273.84
674.60	1234.93
674.79	1204.21
674.98	1179.63
675.16	1247.21
675.35	1353.71
675.54	1214.45
675.73	1196.01
675.91	1218.54
676.10	1234.93
676.29	1245.16
676.48	1245.16
676.67	1232.88
676.85	1206.25
677.04	1222.64
677.23	1216.49
677.42	1210.35
677.60	1222.64
677.79	1208.30
677.98	1236.97
678.17	1153.01
678.36	1189.87
678.54	1294.32
678.73	1165.29
678.92	1189.87
679.11	1198.06
679.29	1177.58
679.48	1208.30
679.67	1142.77
679.86	1243.12
680.04	1230.83
680.23	1189.87
680.42	1196.01
680.61	1218.54
680.79	1224.69
680.98	1271.79
681.17	1288.17
681.36	1185.77
681.54	1189.87
681.73	1261.55
681.92	1210.35
682.11	1198.06
682.29	1251.31
682.48	1150.96
682.67	1175.53
682.85	1179.63
683.04	1239.02
683.23	1236.97
683.42	1165.29
683.60	1202.16
683.79	1206.25
683.98	1253.36
684.17	1189.87
684.35	1208.30
684.54	1269.74
684.73	1140.72
684.91	1325.04
685.10	1294.32
685.29	1228.78
685.48	1269.74
685.66	1216.49
685.85	1134.57
686.04	1228.78
686.22	1265.64
686.41	1208.30
686.60	1161.20
686.78	1226.73
686.97	1228.78
687.16	1331.18
687.35	1247.21
687.53	1181.68
687.72	1218.54
687.91	1241.07
688.09	1236.97
688.28	1204.21
688.47	1220.59
688.65	1247.21
688.84	1228.78
689.03	1216.49
689.21	1253.36
689.40	1232.88
689.59	1241.07
689.77	1196.01
689.96	1243.12
690.15	1275.88
690.33	1232.88
690.52	1302.51
690.71	1249.26
690.89	1257.45
691.08	1282.03
691.27	1187.82
691.45	1214.45
691.64	1189.87
691.83	1267.69
692.01	1282.03
692.20	1196.01
692.39	1290.22
692.57	1259.50
692.76	1200.11
692.95	1165.29
693.13	1300.46
693.32	1224.69
693.50	1234.93
693.69	1241.07
693.88	1261.55
694.06	1212.40
694.25	1181.68
694.44	1214.45
694.62	1175.53
694.81	1247.21
695.00	1239.02
695.18	1212.40
695.37	1232.88
695.55	1251.31
695.74	1239.02
695.93	1308.65
696.11	1322.99
696.30	1243.12
696.49	1236.97
696.67	1251.31
696.86	1200.11
697.04	1337.32
697.23	1228.78
697.42	1222.64
697.60	1220.59
697.79	1300.46
697.97	1200.11
698.16	1204.21
698.35	1208.30
698.53	1212.40
698.72	1251.31
698.90	1292.27
699.09	1261.55
699.28	1265.64
699.46	1208.30
699.65	1275.88
699.83	1265.64
700.02	1214.45
700.21	1277.93
700.39	1241.07
700.58	1275.88
700.76	1191.92
700.95	1273.84
701.13	1296.36
701.32	1269.74
701.51	1300.46
701.69	1230.83
701.88	1222.64
702.06	1275.88
702.25	1251.31
702.43	1267.69
702.62	1241.07
702.81	1171.44
702.99	1230.83
703.18	1224.69
703.36	1294.32
703.55	1232.88
703.73	1206.25
703.92	1282.03
704.10	1232.88
704.29	1290.22
704.48	1212.40
704.66	1335.28
704.85	1271.79
705.03	1304.56
705.22	1234.93
705.40	1308.65
705.59	1310.70
705.77	1279.98
705.96	1253.36
706.14	1316.84
706.33	1316.84
706.51	1316.84
706.70	1284.08
706.89	1271.79
707.07	1257.45
707.26	1327.08
707.44	1304.56
707.63	1288.17
707.81	1314.80
708.00	1308.65
708.18	1302.51
708.37	1241.07
708.55	1279.98
708.74	1279.98
708.92	1310.70
709.11	1267.69
709.29	1286.12
709.48	1349.61
709.66	1222.64
709.85	1241.07
710.03	1265.64
710.22	1312.75
710.40	1185.77
710.59	1302.51
710.77	1318.89
710.96	1310.70
711.14	1339.37
711.33	1255.40
711.51	1314.80
711.70	1245.16
711.88	1216.49
712.07	1288.17
712.25	1296.36
712.44	1322.99
712.62	1355.76
712.81	1290.22
712.99	1279.98
713.18	1255.40
713.36	1216.49
713.54	1273.84
713.73	1228.78
713.91	1302.51
714.10	1267.69
714.28	1294.32
714.47	1284.08
714.65	1247.21
714.84	1216.49
715.02	1191.92
715.21	1200.11
715.39	1253.36
715.58	1220.59
715.76	1226.73
715.94	1265.64
716.13	1222.64
716.31	1177.58
716.50	1267.69
716.68	1212.40
716.87	1210.35
717.05	1253.36
717.24	1247.21
717.42	1247.21
717.60	1236.97
717.79	1245.16
717.97	1187.82
718.16	1275.88
718.34	1230.83
718.53	1257.45
718.71	1216.49
718.89	1288.17
719.08	1245.16
719.26	1267.69
719.45	1226.73
719.63	1265.64
719.82	1249.26
720.00	1269.74
720.18	1263.60
720.37	1183.73
720.55	1224.69
720.74	1169.39
720.92	1230.83
721.10	1251.31
721.29	1265.64
721.47	1239.02
721.66	1251.31
721.84	1193.97
722.02	1273.84
722.21	1234.93
722.39	1282.03
722.58	1241.07
722.76	1343.47
722.94	1191.92
723.13	1171.44
723.31	1179.63
723.50	1263.60
723.68	1224.69
723.86	1267.69
724.05	1263.60
724.23	1322.99
724.41	1187.82
724.60	1261.55
724.78	1214.45
724.97	1179.63
725.15	1247.21
725.33	1271.79
725.52	1294.32
725.70	1292.27
725.88	1189.87
726.07	1269.74
726.25	1202.16
726.44	1249.26
726.62	1236.97
726.80	1259.50
726.99	1191.92
727.17	1257.45
727.35	1234.93
727.54	1261.55
727.72	1218.54
727.90	1212.40
728.09	1259.50
728.27	1292.27
728.45	1247.21
728.64	1200.11
728.82	1269.74
729.00	1198.06
729.19	1165.29
729.37	1226.73
729.55	1179.63
729.74	1216.49
729.92	1253.36
730.10	1236.97
730.29	1187.82
730.47	1212.40
730.65	1288.17
730.84	1165.29
731.02	1230.83
731.20	1189.87
731.39	1232.88
731.57	1310.70
731.75	1277.93
731.94	1224.69
732.12	1236.97
732.30	1218.54
732.49	1243.12
732.67	1261.55
732.85	1265.64
733.03	1257.45
733.22	1226.73
733.40	1241.07
733.58	1279.98
733.77	1224.69
733.95	1261.55
734.13	1185.77
734.32	1249.26
734.50	1220.59
734.68	1275.88
734.86	1308.65
735.05	1255.40
735.23	1177.58
735.41	1302.51
735.60	1284.08
735.78	1269.74
735.96	1232.88
736.14	1230.83
736.33	1226.73
736.51	1220.59
736.69	1259.50
736.87	1265.64
737.06	1241.07
737.24	1277.93
737.42	1220.59
737.61	1269.74
737.79	1257.45
737.97	1230.83
738.15	1288.17
738.34	1196.01
738.52	1136.62
738.70	1175.53
738.88	1271.79
739.07	1232.88
739.25	1196.01
739.43	1282.03
739.61	1224.69
739.80	1220.59
739.98	1267.69
740.16	1185.77
740.34	1249.26
740.52	1202.16
740.71	1224.69
740.89	1232.88
741.07	1245.16
741.25	1198.06
741.44	1228.78
741.62	1187.82
741.80	1294.32
741.98	1193.97
742.17	1216.49
742.35	1257.45
742.53	1263.60
742.71	1284.08
742.89	1232.88
743.08	1218.54
743.26	1208.30
743.44	1245.16
743.62	1255.40
743.80	1318.89
743.99	1243.12
744.17	1191.92
744.35	1288.17
744.53	1228.78
744.71	1212.40
744.90	1302.51
745.08	1355.76
745.26	1284.08
745.44	1142.77
745.62	1275.88
745.81	1302.51
745.99	1255.40
746.17	1243.12
746.35	1249.26
746.53	1253.36
746.72	1263.60
746.90	1296.36
747.08	1245.16
747.26	1228.78
747.44	1298.41
747.62	1265.64
747.81	1155.05
747.99	1239.02
748.17	1245.16
748.35	1265.64
748.53	1234.93
748.71	1239.02
748.90	1218.54
749.08	1196.01
749.26	1267.69
749.44	1284.08
749.62	1222.64
749.80	1200.11
749.99	1265.64
750.17	1247.21
750.35	1228.78
750.53	1214.45
750.71	1288.17
750.89	1249.26
751.07	1165.29
751.26	1243.12
751.44	1325.04
751.62	1318.89
751.80	1179.63
751.98	1204.21
752.16	1251.31
752.34	1251.31
752.53	1228.78
752.71	1150.96
752.89	1302.51
753.07	1247.21
753.25	1167.34
753.43	1218.54
753.61	1251.31
753.79	1241.07
753.98	1331.18
754.16	1236.97
754.34	1259.50
754.52	1241.07
754.70	1218.54
754.88	1261.55
755.06	1228.78
755.24	1241.07
755.42	1204.21
755.60	1196.01
755.79	1279.98
755.97	1239.02
756.15	1247.21
756.33	1183.73
756.51	1304.56
756.69	1169.39
756.87	1234.93
757.05	1204.21
757.23	1185.77
757.41	1298.41
757.60	1247.21
757.78	1241.07
757.96	1243.12
758.14	1261.55
758.32	1187.82
758.50	1263.60
758.68	1255.40
758.86	1269.74
759.04	1245.16
759.22	1232.88
759.40	1294.32
759.58	1284.08
759.76	1249.26
759.94	1226.73
760.13	1230.83
760.31	1267.69
760.49	1261.55
760.67	1191.92
760.85	1210.35
761.03	1232.88
761.21	1282.03
761.39	1169.39
761.57	1230.83
761.75	1259.50
761.93	1249.26
762.11	1284.08
762.29	1230.83
762.47	1271.79
762.65	1245.16
762.83	1345.52
763.01	1277.93
763.19	1241.07
763.37	1275.88
763.55	1212.40
763.73	1245.16
763.91	1253.36
764.09	1257.45
764.27	1210.35
764.45	1294.32
764.64	1253.36
764.82	1259.50
765.00	1331.18
765.18	1263.60
765.36	1259.50
765.54	1249.26
765.72	1255.40
765.90	1249.26
766.08	1239.02
766.26	1239.02
766.44	1318.89
766.62	1236.97
766.80	1228.78
766.98	1284.08
767.16	1282.03
767.34	1183.73
767.52	1271.79
767.70	1210.35
767.88	1296.36
768.06	1255.40
768.24	1253.36
768.42	1214.45
768.60	1247.21
768.78	1253.36
768.96	1279.98
769.13	1216.49
769.31	1257.45
769.49	1239.02
769.67	1247.21
769.85	1296.36
770.03	1261.55
770.21	1245.16
770.39	1279.98
770.57	1265.64
770.75	1236.97
770.93	1206.25
771.11	1308.65
771.29	1236.97
771.47	1167.34
771.65	1265.64
771.83	1249.26
772.01	1255.40
772.19	1165.29
772.37	1212.40
772.55	1253.36
772.73	1243.12
772.91	1312.75
773.09	1200.11
773.27	1261.55
773.44	1345.52
773.62	1277.93
773.80	1218.54
773.98	1296.36
774.16	1220.59
774.34	1216.49
774.52	1204.21
774.70	1167.34
774.88	1181.68
775.06	1230.83
775.24	1241.07
775.42	1255.40
775.60	1267.69
775.78	1327.08
775.95	1288.17
776.13	1232.88
776.31	1181.68
776.49	1241.07
776.67	1144.81
776.85	1169.39
777.03	1304.56
777.21	1220.59
777.39	1161.20
777.57	1275.88
777.75	1200.11
777.92	1214.45
778.10	1241.07
778.28	1296.36
778.46	1282.03
778.64	1212.40
778.82	1196.01
779.00	1239.02
779.18	1247.21
779.36	1230.83
779.53	1273.84
779.71	1347.56
779.89	1320.94
780.07	1306.60
780.25	1206.25
780.43	1232.88
780.61	1206.25
780.79	1234.93
780.96	1255.40
781.14	1214.45
781.32	1191.92
781.50	1216.49
781.68	1245.16
781.86	1185.77
782.04	1265.64
782.21	1198.06
782.39	1183.73
782.57	1282.03
782.75	1294.32
782.93	1247.21
783.11	1220.59
783.29	1210.35
783.46	1236.97
783.64	1269.74
783.82	1265.64
784.00	1142.77
784.18	1214.45
784.36	1200.11
784.54	1269.74
784.71	1282.03
784.89	1241.07
785.07	1228.78
785.25	1267.69
785.43	1234.93
785.60	1222.64
785.78	1310.70
785.96	1277.93
786.14	1251.31
786.32	1230.83
786.50	1187.82
786.67	1191.92
786.85	1239.02
787.03	1220.59
787.21	1179.63
787.39	1273.84
787.56	1212.40
787.74	1232.88
787.92	1290.22
788.10	1269.74
788.28	1241.07
788.45	1267.69
788.63	1273.84
788.81	1259.50
788.99	1275.88
789.17	1255.40
789.34	1232.88
789.52	1300.46
789.70	1271.79
789.88	1247.21
790.06	1294.32
790.23	1263.60
790.41	1206.25
790.59	1234.93
790.77	1277.93
790.95	1277.93
791.12	1218.54
791.30	1251.31
791.48	1226.73
791.66	1214.45
791.83	1220.59
792.01	1228.78
792.19	1292.27
792.37	1226.73
792.54	1273.84
792.72	1271.79
792.90	1253.36
793.08	1245.16
793.25	1269.74
793.43	1220.59
793.61	1271.79
793.79	1216.49
793.96	1245.16
794.14	1290.22
794.32	1236.97
794.50	1382.38
794.67	1181.68
794.85	1279.98
795.03	1257.45
795.21	1220.59
795.38	1259.50
795.56	1269.74
795.74	1249.26
795.92	1208.30
796.09	1228.78
796.27	1322.99
796.45	1228.78
796.62	1234.93
796.80	1226.73
796.98	1304.56
797.16	1300.46
797.33	1263.60
797.51	1271.79
797.69	1157.10
797.86	1214.45
798.04	1224.69
798.22	1261.55
798.40	1202.16
798.57	1241.07
798.75	1206.25
798.93	1187.82
799.10	1251.31
799.28	1222.64
799.46	1236.97
799.63	1292.27
799.81	1269.74
799.99	1290.22
800.17	1181.68
800.34	1226.73
800.52	1279.98
800.70	1314.80
800.87	1269.74
801.05	1339.37
801.23	1220.59
801.40	1251.31
801.58	1206.25
801.76	1212.40
801.93	1261.55
802.11	1220.59
802.29	1212.40
802.46	1247.21
802.64	1261.55
802.82	1214.45
802.99	1263.60
803.17	1234.93
803.35	1251.31
803.52	1296.36
803.70	1216.49
803.88	1218.54
804.05	1253.36
804.23	1298.41
804.41	1191.92
804.58	1247.21
804.76	1212.40
804.94	1230.83
805.11	1230.83
805.29	1232.88
805.46	1282.03
805.64	1288.17
805.82	1294.32
805.99	1265.64
806.17	1267.69
806.35	1249.26
806.52	1208.30
806.70	1236.97
806.87	1282.03
807.05	1302.51
807.23	1275.88
807.40	1261.55
807.58	1290.22
807.76	1226.73
807.93	1269.74
808.11	1312.75
808.28	1226.73
808.46	1310.70
808.64	1228.78
808.81	1232.88
808.99	1335.28
809.16	1204.21
809.34	1218.54
809.52	1251.31
809.69	1279.98
809.87	1224.69
810.04	1216.49
810.22	1181.68
810.40	1269.74
810.57	1193.97
810.75	1267.69
810.92	1249.26
811.10	1226.73
811.28	1245.16
811.45	1241.07
811.63	1304.56
811.80	1300.46
811.98	1325.04
812.15	1327.08
812.33	1255.40
812.51	1263.60
812.68	1228.78
812.86	1277.93
813.03	1255.40
813.21	1234.93
813.38	1218.54
813.56	1200.11
813.74	1277.93
813.91	1222.64
814.09	1263.60
814.26	1251.31
814.44	1218.54
814.61	1253.36
814.79	1236.97
814.96	1243.12
815.14	1204.21
815.31	1298.41
815.49	1271.79
815.67	1216.49
815.84	1136.62
816.02	1269.74
816.19	1275.88
816.37	1320.94
816.54	1263.60
816.72	1187.82
816.89	1191.92
817.07	1232.88
817.24	1167.34
817.42	1294.32
817.59	1263.60
817.77	1288.17
817.94	1320.94
818.12	1296.36
818.29	1177.58
818.47	1226.73
818.64	1226.73
818.82	1236.97
818.99	1177.58
819.17	1212.40
819.34	1257.45
819.52	1290.22
819.69	1183.73
819.87	1310.70
820.04	1257.45
820.22	1224.69
820.39	1230.83
820.57	1279.98
820.74	1275.88
820.92	1265.64
821.09	1320.94
821.27	1271.79
821.44	1247.21
821.62	1241.07
821.79	1234.93
821.97	1282.03
822.14	1193.97
822.32	1183.73
822.49	1271.79
822.67	1202.16
822.84	1265.64
823.02	1265.64
823.19	1191.92
823.37	1290.22
823.54	1255.40
823.72	1232.88
823.89	1243.12
824.06	1220.59
824.24	1159.15
824.41	1304.56
824.59	1261.55
824.76	1245.16
824.94	1261.55
825.11	1210.35
825.29	1273.84
825.46	1302.51
825.63	1273.84
825.81	1265.64
825.98	1312.75
826.16	1282.03
826.33	1249.26
826.51	1228.78
826.68	1333.23
826.86	1202.16
827.03	1214.45
827.20	1228.78
827.38	1208.30
827.55	1234.93
827.73	1216.49
827.90	1277.93
828.07	1245.16
828.25	1224.69
828.42	1234.93
828.60	1296.36
828.77	1292.27
828.95	1331.18
829.12	1290.22
829.29	1206.25
829.47	1265.64
829.64	1228.78
829.82	1232.88
829.99	1255.40
830.16	1183.73
830.34	1214.45
830.51	1245.16
830.69	1165.29
830.86	1247.21
831.03	1337.32
831.21	1216.49
831.38	1288.17
831.55	1230.83
831.73	1288.17
831.90	1239.02
832.08	1208.30
832.25	1286.12
832.42	1255.40
832.60	1163.25
832.77	1226.73
832.94	1226.73
833.12	1179.63
833.29	1257.45
833.47	1232.88
833.64	1196.01
833.81	1267.69
833.99	1230.83
834.16	1165.29
834.33	1216.49
834.51	1204.21
834.68	1290.22
834.85	1284.08
835.03	1273.84
835.20	1267.69
835.37	1288.17
835.55	1228.78
835.72	1261.55
835.90	1196.01
836.07	1279.98
836.24	1198.06
836.42	1263.60
836.59	1181.68
836.76	1296.36
836.94	1271.79
837.11	1298.41
837.28	1212.40
837.46	1282.03
837.63	1165.29
837.80	1228.78
837.97	1245.16
838.15	1189.87
838.32	1279.98
838.49	1224.69
838.67	1230.83
838.84	1210.35
839.01	1191.92
839.19	1271.79
839.36	1185.77
839.53	1243.12
839.71	1269.74
839.88	1236.97
840.05	1273.84
840.22	1304.56
840.40	1261.55
840.57	1265.64
840.74	1247.21
840.92	1265.64
841.09	1265.64
841.26	1212.40
841.43	1277.93
841.61	1257.45
841.78	1390.57
841.95	1189.87
842.13	1277.93
842.30	1196.01
842.47	1216.49
842.64	1239.02
842.82	1316.84
842.99	1138.67
843.16	1206.25
843.34	1193.97
843.51	1212.40
843.68	1212.40
843.85	1337.32
844.03	1189.87
844.20	1214.45
844.37	1200.11
844.54	1214.45
844.72	1239.02
844.89	1259.50
845.06	1196.01
845.23	1255.40
845.41	1259.50
845.58	1155.05
845.75	1263.60
845.92	1292.27
846.10	1232.88
846.27	1159.15
846.44	1214.45
846.61	1193.97
846.78	1212.40
846.96	1212.40
847.13	1224.69
847.30	1198.06
847.47	1302.51
847.65	1210.35
847.82	1263.60
847.99	1206.25
848.16	1279.98
848.33	1224.69
848.51	1265.64
848.68	1273.84
848.85	1224.69
849.02	1236.97
849.19	1273.84
849.37	1251.31
849.54	1218.54
849.71	1243.12
849.88	1222.64
850.05	1185.77
850.23	1216.49
850.40	1210.35
850.57	1259.50
850.74	1230.83
850.91	1226.73
851.09	1253.36
851.26	1279.98
851.43	1282.03
851.60	1300.46
851.77	1261.55
851.95	1097.71
852.12	1226.73
852.29	1228.78
852.46	1236.97
852.63	1255.40
852.80	1214.45
852.98	1273.84
853.15	1241.07
853.32	1310.70
853.49	1341.42
853.66	1277.93
853.83	1148.91
854.01	1236.97
854.18	1216.49
854.35	1247.21
854.52	1230.83
854.69	1193.97
854.86	1245.16
855.03	1253.36
855.21	1232.88
855.38	1239.02
855.55	1243.12
855.72	1230.83
855.89	1224.69
856.06	1298.41
856.23	1234.93
856.41	1218.54
856.58	1214.45
856.75	1234.93
856.92	1255.40
857.09	1218.54
857.26	1212.40
857.43	1218.54
857.60	1191.92
857.78	1261.55
857.95	1226.73
858.12	1327.08
858.29	1189.87
858.46	1232.88
858.63	1253.36
858.80	1239.02
858.97	1216.49
859.14	1177.58
859.32	1243.12
859.49	1261.55
859.66	1214.45
859.83	1206.25
860.00	1241.07
860.17	1288.17
860.34	1202.16
860.51	1239.02
860.68	1288.17
860.85	1228.78
861.02	1247.21
861.20	1230.83
861.37	1265.64
861.54	1196.01
861.71	1216.49
861.88	1214.45
862.05	1241.07
862.22	1204.21
862.39	1185.77
862.56	1226.73
862.73	1198.06
862.90	1196.01
863.07	1228.78
863.24	1251.31
863.41	1204.21
863.59	1187.82
863.76	1245.16
863.93	1206.25
864.10	1210.35
864.27	1292.27
864.44	1222.64
864.61	1218.54
864.78	1243.12
864.95	1273.84
865.12	1277.93
865.29	1261.55
865.46	1267.69
865.63	1193.97
865.80	1245.16
865.97	1269.74
866.14	1224.69
866.31	1236.97
866.48	1196.01
866.65	1196.01
866.82	1222.64
866.99	1318.89
867.16	1251.31
867.33	1286.12
867.50	1224.69
867.67	1306.60
867.84	1159.15
868.01	1200.11
868.18	1239.02
868.35	1286.12
868.52	1236.97
868.69	1253.36
868.86	1232.88
869.03	1271.79
869.20	1204.21
869.37	1208.30
869.54	1224.69
869.71	1245.16
869.88	1210.35
870.05	1214.45
870.22	1243.12
870.39	1261.55
870.56	1277.93
870.73	1241.07
870.90	1210.35
871.07	1173.49
871.24	1224.69
871.41	1251.31
871.58	1255.40
871.75	1241.07
871.92	1265.64
872.09	1230.83
872.26	1259.50
872.43	1265.64
872.60	1216.49
872.77	1249.26
872.94	1175.53
873.11	1269.74
873.28	1245.16
873.45	1263.60
873.62	1279.98
873.79	1200.11
873.96	1216.49
874.13	1277.93
874.30	1247.21
874.47	1255.40
874.64	1171.44
874.80	1302.51
874.97	1284.08
875.14	1265.64
875.31	1167.34
875.48	1241.07
875.65	1271.79
875.82	1234.93
875.99	1236.97
876.16	1198.06
876.33	1275.88
876.50	1261.55
876.67	1234.93
876.84	1212.40
877.01	1249.26
877.17	1206.25
877.34	1267.69
877.51	1232.88
877.68	1196.01
877.85	1234.93
878.02	1241.07
878.19	1314.80
878.36	1216.49
878.53	1200.11
878.70	1230.83
878.87	1228.78
879.03	1193.97
879.20	1288.17
879.37	1200.11
879.54	1226.73
879.71	1208.30
879.88	1286.12
880.05	1249.26
880.22	1202.16
880.39	1210.35
880.55	1183.73
880.72	1198.06
880.89	1275.88
881.06	1200.11
881.23	1208.30
881.40	1282.03
881.57	1259.50
881.74	1230.83
881.90	1212.40
882.07	1214.45
882.24	1294.32
882.41	1236.97
882.58	1255.40
882.75	1261.55
882.92	1241.07
883.08	1196.01
883.25	1228.78
883.42	1249.26
883.59	1220.59
883.76	1232.88
883.93	1230.83
884.09	1236.97
884.26	1255.40
884.43	1210.35
884.60	1234.93
884.77	1255.40
884.94	1265.64
885.10	1245.16
885.27	1255.40
885.44	1228.78
885.61	1206.25
885.78	1202.16
885.95	1204.21
886.11	1187.82
886.28	1333.23
886.45	1265.64
886.62	1220.59
886.79	1234.93
886.96	1214.45
887.12	1179.63
887.29	1306.60
887.46	1300.46
887.63	1239.02
887.80	1308.65
887.96	1277.93
888.13	1212.40
888.30	1292.27
888.47	1234.93
888.64	1275.88
888.80	1181.68
888.97	1243.12
889.14	1157.10
889.31	1230.83
889.47	1277.93
889.64	1161.20
889.81	1296.36
889.98	1251.31
890.15	1241.07
890.31	1222.64
890.48	1222.64
890.65	1222.64
890.82	1222.64
890.98	1222.64
891.15	1222.64
>>>>>End Processed Spectral Data<<<<<
