SpectraSuite Data File
++++++++++++++++++++++++++++++++++++
Date: Fri Jan 24 17:01:20 MST 2020
User: Molly
Dark Spectrum Present: Yes
Reference Spectrum Present: Yes
Number of Sampled Component Spectra: 1
Spectrometers: USB4E03280
Integration Time (usec): 32000 (USB4E03280)
Spectra Averaged: 1 (USB4E03280)
Boxcar Smoothing: 0 (USB4E03280)
Correct for Electrical Dark: No (USB4E03280)
Strobe/Lamp Enabled: Yes (USB4E03280)
Correct for Detector Non-linearity: No (USB4E03280)
Correct for Stray Light: No (USB4E03280)
Number of Pixels in Processed Spectrum: 3648
>>>>>Begin Processed Spectral Data<<<<<
177.66	1153.01
177.88	1153.01
178.10	1153.01
178.32	1255.40
178.54	1206.25
178.76	1232.88
178.98	1261.55
179.19	1232.88
179.41	1216.49
179.63	1214.45
179.85	1234.93
180.07	1179.63
180.29	1146.86
180.51	1265.64
180.72	1193.97
180.94	1167.34
181.16	1243.12
181.38	1187.82
181.60	1277.93
181.82	1261.55
182.04	1288.17
182.25	1275.88
182.47	1259.50
182.69	1259.50
182.91	1232.88
183.13	1325.04
183.35	1300.46
183.56	1339.37
183.78	1298.41
184.00	1253.36
184.22	1306.60
184.44	1302.51
184.66	1284.08
184.87	1261.55
185.09	1302.51
185.31	1247.21
185.53	1269.74
185.75	1171.44
185.97	1322.99
186.18	1212.40
186.40	1337.32
186.62	1329.13
186.84	1222.64
187.06	1249.26
187.28	1318.89
187.49	1284.08
187.71	1349.61
187.93	1288.17
188.15	1259.50
188.37	1322.99
188.59	1296.36
188.80	1257.45
189.02	1294.32
189.24	1357.80
189.46	1241.07
189.68	1245.16
189.89	1294.32
190.11	1269.74
190.33	1306.60
190.55	1306.60
190.77	1245.16
190.98	1265.64
191.20	1212.40
191.42	1298.41
191.64	1216.49
191.86	1273.84
192.07	1277.93
192.29	1296.36
192.51	1345.52
192.73	1263.60
192.95	1322.99
193.16	1212.40
193.38	1333.23
193.60	1333.23
193.82	1331.18
194.04	1239.02
194.25	1302.51
194.47	1179.63
194.69	1259.50
194.91	1249.26
195.13	1316.84
195.34	1284.08
195.56	1257.45
195.78	1232.88
196.00	1294.32
196.22	1220.59
196.43	1380.33
196.65	1333.23
196.87	1228.78
197.09	1247.21
197.30	1251.31
197.52	1335.28
197.74	1275.88
197.96	1282.03
198.18	1292.27
198.39	1247.21
198.61	1265.64
198.83	1290.22
199.05	1267.69
199.26	1298.41
199.48	1294.32
199.70	1318.89
199.92	1345.52
200.13	1310.70
200.35	1261.55
200.57	1259.50
200.79	1277.93
201.00	1275.88
201.22	1271.79
201.44	1241.07
201.66	1318.89
201.88	1245.16
202.09	1261.55
202.31	1347.56
202.53	1357.80
202.75	1275.88
202.96	1243.12
203.18	1331.18
203.40	1345.52
203.62	1318.89
203.83	1355.76
204.05	1325.04
204.27	1259.50
204.49	1288.17
204.70	1308.65
204.92	1243.12
205.14	1261.55
205.35	1433.58
205.57	1318.89
205.79	1290.22
206.01	1300.46
206.22	1335.28
206.44	1320.94
206.66	1318.89
206.88	1306.60
207.09	1269.74
207.31	1394.67
207.53	1243.12
207.75	1304.56
207.96	1275.88
208.18	1306.60
208.40	1345.52
208.61	1312.75
208.83	1247.21
209.05	1257.45
209.27	1284.08
209.48	1273.84
209.70	1372.14
209.92	1282.03
210.14	1345.52
210.35	1247.21
210.57	1312.75
210.79	1329.13
211.00	1277.93
211.22	1329.13
211.44	1257.45
211.66	1284.08
211.87	1277.93
212.09	1239.02
212.31	1273.84
212.52	1300.46
212.74	1374.19
212.96	1325.04
213.17	1359.85
213.39	1406.95
213.61	1333.23
213.83	1220.59
214.04	1286.12
214.26	1322.99
214.48	1290.22
214.69	1302.51
214.91	1314.80
215.13	1316.84
215.34	1300.46
215.56	1286.12
215.78	1308.65
216.00	1279.98
216.21	1343.47
216.43	1327.08
216.65	1202.16
216.86	1308.65
217.08	1329.13
217.30	1402.86
217.51	1255.40
217.73	1361.90
217.95	1239.02
218.16	1312.75
218.38	1314.80
218.60	1345.52
218.81	1263.60
219.03	1286.12
219.25	1322.99
219.46	1292.27
219.68	1302.51
219.90	1304.56
220.11	1243.12
220.33	1327.08
220.55	1386.47
220.76	1279.98
220.98	1310.70
221.20	1284.08
221.41	1247.21
221.63	1267.69
221.85	1275.88
222.06	1222.64
222.28	1382.38
222.50	1322.99
222.71	1296.36
222.93	1316.84
223.15	1312.75
223.36	1359.85
223.58	1304.56
223.80	1267.69
224.01	1302.51
224.23	1327.08
224.45	1333.23
224.66	1261.55
224.88	1277.93
225.10	1288.17
225.31	1306.60
225.53	1282.03
225.75	1302.51
225.96	1261.55
226.18	1374.19
226.39	1349.61
226.61	1304.56
226.83	1312.75
227.04	1275.88
227.26	1306.60
227.48	1361.90
227.69	1314.80
227.91	1308.65
228.13	1304.56
228.34	1325.04
228.56	1298.41
228.77	1277.93
228.99	1345.52
229.21	1320.94
229.42	1347.56
229.64	1224.69
229.86	1290.22
230.07	1306.60
230.29	1298.41
230.50	1308.65
230.72	1308.65
230.94	1208.30
231.15	1292.27
231.37	1322.99
231.58	1318.89
231.80	1286.12
232.02	1306.60
232.23	1368.04
232.45	1370.09
232.67	1257.45
232.88	1314.80
233.10	1308.65
233.31	1314.80
233.53	1339.37
233.75	1316.84
233.96	1212.40
234.18	1339.37
234.39	1314.80
234.61	1333.23
234.83	1243.12
235.04	1279.98
235.26	1226.73
235.47	1255.40
235.69	1363.95
235.91	1286.12
236.12	1298.41
236.34	1386.47
236.55	1245.16
236.77	1370.09
236.99	1243.12
237.20	1284.08
237.42	1310.70
237.63	1316.84
237.85	1372.14
238.06	1316.84
238.28	1279.98
238.50	1368.04
238.71	1347.56
238.93	1286.12
239.14	1290.22
239.36	1372.14
239.58	1333.23
239.79	1267.69
240.01	1329.13
240.22	1294.32
240.44	1429.48
240.65	1322.99
240.87	1273.84
241.09	1288.17
241.30	1318.89
241.52	1304.56
241.73	1312.75
241.95	1306.60
242.16	1347.56
242.38	1370.09
242.59	1259.50
242.81	1296.36
243.03	1351.66
243.24	1355.76
243.46	1314.80
243.67	1241.07
243.89	1202.16
244.10	1298.41
244.32	1322.99
244.53	1331.18
244.75	1320.94
244.97	1310.70
245.18	1355.76
245.40	1320.94
245.61	1267.69
245.83	1234.93
246.04	1368.04
246.26	1318.89
246.47	1316.84
246.69	1308.65
246.90	1349.61
247.12	1355.76
247.34	1312.75
247.55	1296.36
247.77	1322.99
247.98	1318.89
248.20	1318.89
248.41	1265.64
248.63	1337.32
248.84	1302.51
249.06	1349.61
249.27	1279.98
249.49	1239.02
249.70	1292.27
249.92	1343.47
250.13	1333.23
250.35	1302.51
250.56	1290.22
250.78	1353.71
251.00	1374.19
251.21	1296.36
251.43	1288.17
251.64	1312.75
251.86	1282.03
252.07	1343.47
252.29	1335.28
252.50	1322.99
252.72	1372.14
252.93	1265.64
253.15	1390.57
253.36	1413.10
253.58	1310.70
253.79	1316.84
254.01	1390.57
254.22	1271.79
254.44	1327.08
254.65	1366.00
254.87	1318.89
255.08	1300.46
255.30	1277.93
255.51	1310.70
255.73	1294.32
255.94	1267.69
256.16	1388.52
256.37	1249.26
256.59	1347.56
256.80	1351.66
257.02	1296.36
257.23	1247.21
257.45	1339.37
257.66	1302.51
257.88	1359.85
258.09	1314.80
258.31	1351.66
258.52	1322.99
258.74	1353.71
258.95	1378.28
259.16	1345.52
259.38	1347.56
259.59	1314.80
259.81	1302.51
260.02	1298.41
260.24	1337.32
260.45	1347.56
260.67	1378.28
260.88	1419.24
261.10	1320.94
261.31	1288.17
261.53	1312.75
261.74	1355.76
261.96	1302.51
262.17	1318.89
262.39	1386.47
262.60	1372.14
262.81	1372.14
263.03	1341.42
263.24	1308.65
263.46	1286.12
263.67	1353.71
263.89	1361.90
264.10	1331.18
264.32	1312.75
264.53	1277.93
264.75	1339.37
264.96	1347.56
265.17	1351.66
265.39	1339.37
265.60	1322.99
265.82	1279.98
266.03	1304.56
266.25	1384.43
266.46	1339.37
266.68	1302.51
266.89	1298.41
267.10	1363.95
267.32	1386.47
267.53	1351.66
267.75	1347.56
267.96	1327.08
268.18	1349.61
268.39	1413.10
268.61	1335.28
268.82	1279.98
269.03	1308.65
269.25	1290.22
269.46	1302.51
269.68	1378.28
269.89	1355.76
270.11	1415.15
270.32	1390.57
270.53	1370.09
270.75	1370.09
270.96	1284.08
271.18	1304.56
271.39	1392.62
271.60	1366.00
271.82	1374.19
272.03	1353.71
272.25	1329.13
272.46	1374.19
272.68	1378.28
272.89	1343.47
273.10	1388.52
273.32	1411.05
273.53	1370.09
273.75	1372.14
273.96	1290.22
274.17	1337.32
274.39	1327.08
274.60	1343.47
274.82	1398.76
275.03	1411.05
275.24	1388.52
275.46	1349.61
275.67	1429.48
275.89	1421.29
276.10	1384.43
276.31	1415.15
276.53	1386.47
276.74	1368.04
276.96	1325.04
277.17	1386.47
277.38	1343.47
277.60	1347.56
277.81	1304.56
278.02	1380.33
278.24	1357.80
278.45	1341.42
278.67	1366.00
278.88	1409.00
279.09	1443.82
279.31	1402.86
279.52	1331.18
279.73	1376.24
279.95	1382.38
280.16	1380.33
280.38	1359.85
280.59	1400.81
280.80	1398.76
281.02	1359.85
281.23	1372.14
281.44	1363.95
281.66	1402.86
281.87	1363.95
282.09	1353.71
282.30	1392.62
282.51	1460.20
282.73	1466.35
282.94	1458.15
283.15	1488.87
283.37	1478.63
283.58	1540.07
283.79	1552.36
284.01	1542.12
284.22	1640.42
284.43	1730.53
284.65	1705.96
284.86	1712.10
285.07	1744.87
285.29	1830.88
285.50	1957.86
285.72	1912.80
285.93	1966.05
286.14	1982.43
286.36	2056.16
286.57	2271.20
286.78	2207.71
287.00	2287.58
287.21	2467.80
287.42	2519.00
287.64	2619.35
287.85	2594.78
288.06	2740.18
288.28	2826.20
288.49	2947.03
288.70	2920.40
288.92	3067.86
289.13	3203.02
289.34	3289.04
289.56	3149.78
289.77	3190.74
289.98	3262.41
290.19	3469.26
290.41	3311.57
290.62	3401.68
290.83	3432.40
291.05	3510.22
291.26	3555.27
291.47	3573.71
291.69	3674.06
291.90	3952.58
292.11	4091.84
292.33	4313.02
292.54	4349.89
292.75	4566.97
292.97	4831.16
293.18	5154.74
293.39	5351.34
293.60	5617.58
293.82	5900.20
294.03	5994.40
294.24	6555.55
294.46	6723.48
294.67	7040.92
294.88	7268.24
295.10	7802.76
295.31	8021.89
295.52	8556.41
295.73	8777.59
295.95	8972.15
296.16	9754.48
296.37	9705.32
296.59	10073.96
296.80	10338.15
297.01	10985.30
297.22	10880.86
297.44	11595.60
297.65	11614.03
297.86	12058.44
298.08	12181.32
298.29	12552.00
298.50	12746.56
298.71	13166.39
298.93	13031.23
299.14	13522.74
299.35	13752.11
299.56	13692.72
299.78	14165.80
299.99	14567.20
300.20	14516.00
300.42	14561.06
300.63	14667.55
300.84	15212.31
301.05	15138.58
301.27	15320.85
301.48	15623.95
301.69	15578.90
301.90	15681.30
302.12	16199.43
302.33	16068.36
302.54	16312.07
302.75	16285.45
302.97	16193.29
303.18	16185.10
303.39	16690.95
303.60	17004.28
303.82	17002.24
304.03	17086.20
304.24	17104.64
304.45	16955.13
304.67	17336.06
304.88	17594.10
305.09	17221.37
305.30	17575.67
305.52	17577.72
305.73	17532.66
305.94	17929.97
306.15	18083.56
306.37	18083.56
306.58	18009.84
306.79	18300.65
307.00	18102.00
307.22	18411.24
307.43	18460.39
307.64	18126.57
307.85	18577.12
308.06	18276.07
308.28	18589.41
308.49	18888.42
308.70	18654.95
308.91	18552.55
309.13	18710.24
309.34	18992.86
309.55	18771.68
309.76	19013.34
309.97	18990.81
310.19	19248.86
310.40	19156.70
310.61	19101.40
310.82	19029.73
311.04	19304.15
311.25	19230.43
311.46	19730.13
311.67	19355.35
311.88	19492.57
312.10	19300.06
312.31	19613.40
312.52	20057.81
312.73	19459.80
312.94	19312.35
313.16	19691.22
313.37	19277.53
313.58	19705.56
313.79	19973.84
314.00	19640.02
314.22	19277.53
314.43	20262.60
314.64	19635.92
314.85	19709.65
315.06	19795.67
315.27	19998.41
315.49	19826.39
315.70	19941.07
315.91	19676.88
316.12	19906.26
316.33	20295.37
316.55	19726.04
316.76	19965.65
316.97	20225.74
317.18	20113.10
317.39	20756.16
317.60	20446.92
317.82	20225.74
318.03	20059.85
318.24	20244.17
318.45	20088.53
318.66	20127.44
318.88	20440.78
319.09	20086.48
319.30	20442.82
319.51	20301.51
319.72	20098.77
319.93	20440.78
320.15	20172.49
320.36	20561.61
320.57	20668.10
320.78	20305.61
320.99	20278.99
321.20	20532.93
321.41	19998.41
321.63	20014.80
321.84	20334.28
322.05	20352.71
322.26	20117.20
322.47	20735.68
322.68	19967.70
322.90	20231.88
323.11	19742.42
323.32	20629.19
323.53	20061.90
323.74	19986.13
323.95	20207.31
324.16	20080.33
324.38	20117.20
324.59	20096.72
324.80	19975.89
325.01	20076.24
325.22	20063.95
325.43	19850.96
325.64	20002.51
325.85	20039.37
326.07	19009.25
326.28	19764.95
326.49	19662.55
326.70	19564.25
326.91	19226.33
327.12	19187.42
327.33	18888.42
327.54	19449.56
327.76	18929.38
327.97	18835.17
328.18	18532.07
328.39	18575.08
328.60	18603.75
328.81	18530.02
329.02	18515.69
329.23	18865.89
329.45	18882.27
329.66	18788.07
329.87	18919.14
330.08	19009.25
330.29	19044.06
330.50	19248.86
330.71	19199.71
330.92	19459.80
331.13	19787.47
331.34	19816.15
331.56	20207.31
331.77	20577.99
331.98	21552.82
332.19	21704.37
332.40	21907.12
332.61	22136.49
332.82	21759.67
333.03	21214.91
333.24	20670.15
333.45	20172.49
333.67	19586.77
333.88	19408.60
334.09	19283.67
334.30	19527.38
334.51	19453.66
334.72	19234.52
334.93	19519.19
335.14	19482.33
335.35	19312.35
335.56	19293.91
335.77	19437.27
335.98	19390.17
336.19	19697.36
336.41	19459.80
336.62	19728.08
336.83	19603.16
337.04	19201.76
337.25	19480.28
337.46	19478.23
337.67	19445.46
337.88	19306.20
338.09	19406.55
338.30	19257.05
338.51	19721.94
338.72	19087.07
338.93	19570.39
339.14	19381.98
339.35	19816.15
339.57	19322.59
339.78	19476.18
339.99	19637.97
340.20	19918.54
340.41	19693.27
340.62	20076.24
340.83	19713.75
341.04	19343.06
341.25	19343.06
341.46	19582.68
341.67	19334.87
341.88	19379.93
342.09	19584.73
342.30	19375.83
342.51	19728.08
342.72	20092.62
342.93	19367.64
343.14	19896.02
343.35	18945.76
343.56	19840.72
343.77	19324.63
343.98	19285.72
344.19	19900.11
344.41	19199.71
344.62	19322.59
344.83	19416.79
345.04	19363.54
345.25	19627.73
345.46	19519.19
345.67	19631.83
345.88	19367.64
346.09	19506.90
346.30	19732.18
346.51	19664.60
346.72	19416.79
346.93	19842.77
347.14	19363.54
347.35	19654.36
347.56	19283.67
347.77	19721.94
347.98	19642.07
348.19	19343.06
348.40	19424.98
348.61	19570.39
348.82	19193.56
349.03	19181.28
349.24	19211.99
349.45	19154.65
349.66	19277.53
349.87	19232.47
350.08	19195.61
350.29	19451.61
350.50	18869.98
350.71	19033.82
350.92	18693.86
351.13	18759.39
351.34	18915.04
351.55	19197.66
351.76	18564.84
351.97	19252.95
352.18	18886.37
352.39	18769.63
352.60	18720.48
352.81	18657.00
353.02	18792.16
353.23	18636.52
353.44	18507.49
353.65	18949.85
353.86	18396.90
354.07	18573.03
354.28	18587.36
354.49	18659.04
354.70	18648.80
354.90	18704.10
355.11	18601.70
355.32	18890.46
355.53	18681.57
355.74	18548.45
355.95	18251.50
356.16	18454.25
356.37	18288.36
356.58	18525.93
356.79	18288.36
357.00	18636.52
357.21	18626.28
357.42	18874.08
357.63	18456.29
357.84	18429.67
358.05	18446.05
358.26	18755.30
358.47	18927.33
358.68	18845.41
358.89	18452.20
359.10	18253.55
359.31	18349.80
359.52	18458.34
359.73	19117.79
359.93	18888.42
360.14	18673.38
360.35	18984.67
360.56	18919.14
360.77	18775.78
360.98	19087.07
361.19	18900.70
361.40	18747.11
361.61	19082.97
361.82	19160.80
362.03	18921.18
362.24	19105.50
362.45	19035.87
362.66	19179.23
362.87	19269.34
363.07	19171.04
363.28	20039.37
363.49	19132.12
363.70	19304.15
363.91	19015.39
364.12	19142.36
364.33	19168.99
364.54	19795.67
364.75	19797.71
364.96	19386.07
365.17	19508.95
365.38	19537.62
365.58	19742.42
365.79	19416.79
366.00	19500.76
366.21	19810.00
366.42	19691.22
366.63	19781.33
366.84	19797.71
367.05	19914.45
367.26	19650.26
367.47	19613.40
367.67	19810.00
367.88	19592.92
368.09	19898.06
368.30	19838.67
368.51	19635.92
368.72	19713.75
368.93	19551.96
369.14	19748.56
369.35	19269.34
369.56	19537.62
369.76	19455.70
369.97	19424.98
370.18	19300.06
370.39	19570.39
370.60	18994.91
370.81	19707.60
371.02	19164.89
371.23	19562.20
371.43	19046.11
371.64	19451.61
371.85	18894.56
372.06	18738.91
372.27	19803.86
372.48	19162.84
372.69	19117.79
372.90	19408.60
373.10	19042.01
373.31	19330.78
373.52	19361.50
373.73	19631.83
373.94	19306.20
374.15	19699.41
374.36	19336.92
374.56	20029.13
374.77	19345.11
374.98	19504.85
375.19	19723.99
375.40	19609.30
375.61	19482.33
375.82	19736.27
376.02	19375.83
376.23	19840.72
376.44	19625.68
376.65	19588.82
376.86	19590.87
377.07	20201.16
377.28	19832.53
377.48	19963.60
377.69	19871.44
377.90	19812.05
378.11	20305.61
378.32	20066.00
378.53	19687.12
378.73	19973.84
378.94	19918.54
379.15	20053.71
379.36	19533.53
379.57	19846.87
379.78	19844.82
379.98	19443.42
380.19	19220.19
380.40	19541.72
380.61	19007.20
380.82	19488.47
381.03	19140.32
381.23	19736.27
381.44	20068.05
381.65	19611.35
381.86	19556.05
382.07	19214.04
382.27	19576.53
382.48	19082.97
382.69	19193.56
382.90	19072.73
383.11	18847.46
383.32	19381.98
383.52	19334.87
383.73	19160.80
383.94	18906.85
384.15	19351.26
384.36	18851.55
384.56	18722.53
384.77	18810.59
384.98	19187.42
385.19	19486.42
385.40	18403.05
385.60	19076.83
385.81	18605.80
386.02	18851.55
386.23	19252.95
386.43	18738.91
386.64	19726.04
386.85	19429.08
387.06	18996.96
387.27	19453.66
387.47	19418.84
387.68	19259.10
387.89	19685.08
388.10	18446.05
388.31	19519.19
388.51	19519.19
388.72	19115.74
388.93	18386.66
389.14	19033.82
389.34	18925.28
389.55	19052.25
389.76	18489.06
389.97	18691.81
390.18	19066.59
390.38	19293.91
390.59	18845.41
390.80	19168.99
391.01	19179.23
391.21	19451.61
391.42	20256.46
391.63	20156.11
391.84	19625.68
392.04	20090.57
392.25	20410.06
392.46	19879.63
392.67	20289.23
392.87	20123.34
393.08	19130.08
393.29	19605.20
393.50	19183.32
393.70	19570.39
393.91	19123.93
394.12	19402.46
394.33	18812.64
394.53	18761.44
394.74	18403.05
394.95	18638.56
395.16	19255.00
395.36	18153.20
395.57	18673.38
395.78	17999.60
395.99	18446.05
396.19	19351.26
396.40	18773.73
396.61	19363.54
396.81	19025.63
397.02	19445.46
397.23	19668.69
397.44	20342.47
397.64	20022.99
397.85	20633.29
398.06	19955.41
398.27	20213.45
398.47	19898.06
398.68	19599.06
398.89	19185.37
399.09	19611.35
399.30	19001.05
399.51	19072.73
399.72	19203.80
399.92	19347.16
400.13	18579.17
400.34	18704.10
400.54	18757.35
400.75	19330.78
400.96	18650.85
401.17	19322.59
401.37	18728.67
401.58	18724.58
401.79	18624.23
401.99	19101.40
402.20	19113.69
402.41	18470.63
402.61	18532.07
402.82	18540.26
403.03	18751.20
403.24	17891.06
403.44	18581.22
403.65	18378.47
403.86	19037.92
404.06	19410.65
404.27	19187.42
404.48	19164.89
404.68	19128.03
404.89	19185.37
405.10	18835.17
405.30	18966.24
405.51	18573.03
405.72	18667.24
405.92	17991.41
406.13	18331.37
406.34	18198.25
406.54	18437.86
406.75	18431.72
406.96	18224.87
407.16	19162.84
407.37	19031.77
407.58	18849.50
407.78	18937.57
407.99	19166.94
408.20	19642.07
408.40	18892.51
408.61	18523.88
408.82	18685.67
409.02	18394.86
409.23	18720.48
409.44	19105.50
409.64	18179.82
409.85	18319.08
410.06	17690.35
410.26	18484.97
410.47	18530.02
410.68	18054.89
410.88	19408.60
411.09	18964.19
411.30	18693.86
411.50	18568.93
411.71	18816.74
411.91	19052.25
412.12	18681.57
412.33	19037.92
412.53	18175.72
412.74	19056.35
412.95	18599.65
413.15	19554.01
413.36	18810.59
413.57	18769.63
413.77	18022.12
413.98	18751.20
414.18	18790.11
414.39	17997.55
414.60	18372.33
414.80	18851.55
415.01	17950.45
415.22	18407.14
415.42	18069.23
415.63	18099.95
415.83	17932.01
416.04	17882.86
416.25	18063.08
416.45	18487.01
416.66	17989.36
416.86	18407.14
417.07	18611.94
417.28	18575.08
417.48	18138.86
417.69	18388.71
417.89	18534.12
418.10	17932.01
418.31	18419.43
418.51	18669.28
418.72	18616.04
418.92	17684.21
419.13	18544.36
419.34	18671.33
419.54	19359.45
419.75	18620.13
419.95	19308.25
420.16	18984.67
420.37	19322.59
420.57	19934.93
420.78	18855.65
420.98	20188.88
421.19	19965.65
421.40	19341.02
421.60	19676.88
421.81	19390.17
422.01	19097.31
422.22	19283.67
422.42	18859.74
422.63	18704.10
422.84	18265.83
423.04	18259.69
423.25	17921.77
423.45	18208.49
423.66	18478.82
423.86	18507.49
424.07	19115.74
424.28	19424.98
424.48	18620.13
424.69	18491.11
424.89	17932.01
425.10	18419.43
425.30	17960.69
425.51	17649.39
425.72	18251.50
425.92	17409.78
426.13	17508.08
426.33	18220.78
426.54	18622.18
426.74	18093.80
426.95	18179.82
427.15	18243.31
427.36	18724.58
427.56	17737.46
427.77	18697.95
427.98	18659.04
428.18	18626.28
428.39	19588.82
428.59	19519.19
428.80	19476.18
429.00	20328.14
429.21	20332.23
429.41	19699.41
429.62	19965.65
429.82	20739.78
430.03	19756.75
430.23	19545.81
430.44	20121.29
430.65	18695.91
430.85	19654.36
431.06	18929.38
431.26	18497.25
431.47	17737.46
431.67	18429.67
431.88	18298.60
432.08	18429.67
432.29	18020.08
432.49	18339.56
432.70	17622.77
432.90	18116.33
433.11	18251.50
433.31	17964.78
433.52	17862.38
433.72	17567.48
433.93	17886.96
434.13	18321.13
434.34	18097.90
434.54	18280.17
434.75	18650.85
434.95	19275.48
435.16	18822.88
435.36	19427.03
435.57	18511.59
435.77	19455.70
435.98	18681.57
436.18	18892.51
436.39	17723.12
436.59	18202.35
436.80	18730.72
437.00	18034.41
437.21	18460.39
437.41	18900.70
437.62	19308.25
437.82	18896.61
438.03	18231.02
438.23	19117.79
438.44	18337.51
438.64	18048.75
438.85	18190.06
439.05	18468.58
439.25	18493.16
439.46	17452.79
439.66	17430.26
439.87	18237.16
440.07	18134.76
440.28	17630.96
440.48	17682.16
440.69	17934.06
440.89	18419.43
441.10	18370.28
441.30	17559.28
441.51	17743.60
441.71	18321.13
441.92	17729.27
442.12	17848.05
442.32	18290.41
442.53	17669.87
442.73	18409.19
442.94	17843.95
443.14	18323.18
443.35	17352.44
443.55	18355.94
443.76	17719.03
443.96	17569.52
444.16	17575.67
444.37	17864.43
444.57	17983.21
444.78	18271.98
444.98	18192.11
445.19	18165.48
445.39	18501.35
445.60	18001.65
445.80	17999.60
446.00	18452.20
446.21	17807.09
446.41	18388.71
446.62	17571.57
446.82	17759.98
447.03	17946.35
447.23	18120.43
447.43	17440.50
447.64	17825.52
447.84	17180.41
448.05	17188.60
448.25	17356.54
448.45	18140.91
448.66	17133.31
448.86	17350.39
449.07	18013.93
449.27	17766.13
449.48	17456.89
449.68	17532.66
449.88	17110.78
450.09	17626.87
450.29	17735.41
450.50	17039.10
450.70	17428.21
450.90	17481.46
451.11	16680.71
451.31	17528.56
451.52	16957.18
451.72	16645.89
451.92	16768.77
452.13	16779.01
452.33	17264.38
452.54	16486.15
452.74	16301.83
452.94	16385.80
453.15	16322.31
453.35	16158.47
453.55	16123.66
453.76	16314.12
453.96	16017.16
454.17	15705.87
454.37	16402.18
454.57	16215.82
454.78	16598.79
454.98	15613.71
455.19	15890.19
455.39	16529.16
455.59	16066.31
455.80	15537.94
456.00	16023.31
456.20	16787.20
456.41	16453.38
456.61	16015.12
456.81	16690.95
457.02	15890.19
457.22	16647.94
457.43	15603.47
457.63	15726.35
457.83	15904.53
458.04	15793.94
458.24	15857.42
458.44	15087.39
458.65	15789.84
458.85	15619.86
459.05	16021.26
459.26	15451.92
459.46	15736.59
459.66	16342.79
459.87	16584.45
460.07	16205.58
460.27	16561.92
460.48	16381.70
460.68	16158.47
460.88	15253.27
461.09	15165.21
461.29	15365.91
461.49	14692.13
461.70	15218.46
461.90	14665.50
462.10	14264.10
462.31	15425.30
462.51	14866.21
462.71	14579.49
462.92	14753.57
463.12	14956.32
463.32	15718.16
463.53	15558.42
463.73	16011.02
463.93	15982.35
464.14	16178.95
464.34	16361.22
464.54	16887.55
464.75	16682.75
464.95	16836.35
465.15	16430.85
465.36	16344.84
465.56	16240.39
465.76	15728.40
465.96	15574.80
466.17	15056.67
466.37	15316.76
466.57	16088.84
466.78	15230.74
466.98	15333.14
467.18	15689.49
467.39	15599.38
467.59	15458.07
467.79	15275.80
467.99	15218.46
468.20	15458.07
468.40	14915.36
468.60	15021.85
468.81	15443.73
469.01	14909.21
469.21	14597.92
469.41	15173.40
469.62	14796.57
469.82	15050.52
470.02	15007.52
470.23	14833.44
470.43	15114.01
470.63	14991.13
470.83	14948.12
471.04	15177.50
471.24	15335.19
471.44	15361.81
471.65	15456.02
471.85	15628.05
472.05	15834.89
472.25	15689.49
472.46	16140.04
472.66	16471.81
472.86	16578.31
473.06	16312.07
473.27	16418.57
473.47	16713.47
473.67	16824.06
473.87	16893.69
474.08	17624.82
474.28	17649.39
474.48	17694.45
474.68	17229.56
474.89	17704.69
475.09	17497.84
475.29	17911.53
475.49	17190.65
475.70	18233.07
475.90	17958.64
476.10	17352.44
476.30	17540.85
476.51	17633.01
476.71	17538.80
476.91	17864.43
477.11	17573.62
477.32	18161.39
477.52	18151.15
477.72	17821.42
477.92	18028.27
478.12	18147.05
478.33	18134.76
478.53	18372.33
478.73	18489.06
478.93	18796.26
479.14	18775.78
479.34	19136.22
479.54	19177.18
479.74	19166.94
479.94	19224.28
480.15	19619.54
480.35	19746.51
480.55	20197.07
480.75	20424.39
480.96	20246.22
481.16	20190.92
481.36	20348.62
481.56	19832.53
481.76	20025.04
481.97	19756.75
482.17	19836.63
482.37	20260.55
482.57	20016.85
482.77	20303.56
482.98	20690.63
483.18	20786.88
483.38	21067.45
483.58	21454.52
483.78	21401.27
483.98	21477.05
484.19	21737.14
484.39	22408.87
484.59	23105.18
484.79	22939.30
484.99	23455.39
485.20	23731.86
485.40	23199.39
485.60	23451.29
485.80	23367.32
486.00	23295.64
486.20	23531.16
486.41	23326.36
486.61	22924.96
486.81	22468.27
487.01	22236.84
487.21	21710.52
487.42	21483.19
487.62	21403.32
487.82	21182.14
488.02	21528.25
488.22	21409.47
488.42	21288.64
488.62	20776.64
488.83	20934.34
489.03	21034.69
489.23	20645.57
489.43	20985.54
489.63	20586.18
489.83	20823.75
490.04	20608.71
490.24	20682.44
490.44	20621.00
490.64	20881.09
490.84	20774.60
491.04	20223.69
491.24	20782.79
491.45	20483.78
491.65	20561.61
491.85	20692.68
492.05	20809.41
492.25	20678.34
492.45	20876.99
492.65	20815.55
492.86	21034.69
493.06	21315.26
493.26	20592.33
493.46	21198.52
493.66	20944.58
493.86	20983.49
494.06	20502.22
494.26	20756.16
494.47	21122.75
494.67	21227.20
494.87	21362.36
495.07	22085.30
495.27	22570.66
495.47	22763.17
495.67	22392.49
495.87	22163.12
496.07	21628.60
496.28	21302.97
496.48	21462.71
496.68	20793.03
496.88	20770.50
497.08	20883.14
497.28	20418.25
497.48	20610.76
497.68	20272.84
497.88	20291.27
498.08	20479.69
498.29	20381.38
498.49	20117.20
498.69	20299.47
498.89	20362.95
499.09	19965.65
499.29	20131.53
499.49	19824.34
499.69	19855.06
499.89	20526.79
500.09	20039.37
500.29	20379.34
500.50	20582.09
500.70	20881.09
500.90	20633.29
501.10	20571.85
501.30	20530.89
501.50	20528.84
501.70	20442.82
501.90	20551.37
502.10	20639.43
502.30	20668.10
502.50	20582.09
502.70	20281.03
502.90	20809.41
503.10	20506.31
503.31	20311.75
503.51	20328.14
503.71	20375.24
503.91	20575.94
504.11	19953.36
504.31	20027.09
504.51	20039.37
504.71	19564.25
504.91	19635.92
505.11	19554.01
505.31	19648.21
505.51	19502.81
505.71	19347.16
505.91	19322.59
506.11	18906.85
506.31	19095.26
506.51	19107.55
506.71	19293.91
506.91	18994.91
507.11	19211.99
507.31	19371.74
507.51	18788.07
507.72	18480.87
507.92	18792.16
508.12	18478.82
508.32	18800.35
508.52	18458.34
508.72	18841.31
508.92	18749.15
509.12	18900.70
509.32	18667.24
509.52	18898.66
509.72	19019.49
509.92	18783.97
510.12	18972.38
510.32	18820.83
510.52	18783.97
510.72	18892.51
510.92	18511.59
511.12	18691.81
511.32	18540.26
511.52	18593.51
511.72	18450.15
511.92	18677.48
512.12	18673.38
512.32	18536.17
512.52	18738.91
512.72	18798.31
512.92	18439.91
513.12	18433.77
513.32	18288.36
513.52	18523.88
513.72	18026.22
513.92	17780.46
514.12	17960.69
514.32	18005.74
514.52	17864.43
514.72	17667.83
514.92	17979.12
515.12	18228.97
515.32	18351.85
515.52	18697.95
515.72	18681.57
515.92	18994.91
516.12	18439.91
516.32	18513.64
516.52	18429.67
516.72	18308.84
516.92	18259.69
517.12	18474.73
517.32	18327.27
517.51	18575.08
517.71	18941.66
517.91	19181.28
518.11	18835.17
518.31	19091.16
518.51	19334.87
518.71	19091.16
518.91	18532.07
519.11	18956.00
519.31	18585.32
519.51	18646.76
519.71	18849.50
519.91	18593.51
520.11	18661.09
520.31	18790.11
520.51	18581.22
520.71	18878.18
520.91	18970.33
521.11	18876.13
521.31	18482.92
521.51	18769.63
521.70	18591.46
521.90	18550.50
522.10	18783.97
522.30	18888.42
522.50	18695.91
522.70	19121.88
522.90	18712.29
523.10	19326.68
523.30	19062.49
523.50	18958.05
523.70	18718.43
523.90	19003.10
524.10	18702.05
524.30	18513.64
524.49	18749.15
524.69	18900.70
524.89	18994.91
525.09	18876.13
525.29	18773.73
525.49	18837.22
525.69	18835.17
525.89	18777.83
526.09	19226.33
526.29	18702.05
526.49	18794.21
526.68	18472.68
526.88	18708.19
527.08	18611.94
527.28	18935.52
527.48	18810.59
527.68	19140.32
527.88	19197.66
528.08	19091.16
528.28	19336.92
528.48	19506.90
528.67	19257.05
528.87	19386.07
529.07	19562.20
529.27	19265.24
529.47	19142.36
529.67	18927.33
529.87	18599.65
530.07	19197.66
530.26	18779.87
530.46	18726.63
530.66	19101.40
530.86	18663.14
531.06	18640.61
531.26	18802.40
531.46	18646.76
531.66	18695.91
531.85	18994.91
532.05	18900.70
532.25	19273.43
532.45	19060.45
532.65	19273.43
532.85	19341.02
533.05	19371.74
533.25	19367.64
533.44	19574.49
533.64	19525.33
533.84	19640.02
534.04	19656.40
534.24	19531.48
534.44	19740.37
534.63	19300.06
534.83	19328.73
535.03	19257.05
535.23	19056.35
535.43	18837.22
535.63	18714.34
535.83	18681.57
536.02	18423.53
536.22	18702.05
536.42	19095.26
536.62	18808.54
536.82	19113.69
537.02	19381.98
537.21	19265.24
537.41	19726.04
537.61	19695.32
537.81	19617.49
538.01	19764.95
538.21	19709.65
538.40	20078.29
538.60	19662.55
538.80	19597.01
539.00	19898.06
539.20	19205.85
539.39	19300.06
539.59	19226.33
539.79	19517.14
539.99	19152.60
540.19	19191.52
540.39	19099.36
540.58	19310.30
540.78	19345.11
540.98	19156.70
541.18	19080.92
541.38	19193.56
541.57	19082.97
541.77	19001.05
541.97	18607.84
542.17	18943.71
542.37	18980.57
542.56	19259.10
542.76	18847.46
542.96	19713.75
543.16	19322.59
543.35	19887.82
543.55	19635.92
543.75	19742.42
543.95	19728.08
544.15	19564.25
544.34	19685.08
544.54	19760.85
544.74	19472.09
544.94	19326.68
545.14	19269.34
545.33	19392.22
545.53	19353.30
545.73	19740.37
545.93	19461.85
546.12	19992.27
546.32	19910.35
546.52	20305.61
546.72	20479.69
546.91	20479.69
547.11	20399.82
547.31	20629.19
547.51	20266.70
547.70	19853.01
547.90	19680.98
548.10	19330.78
548.30	19222.23
548.50	19013.34
548.69	18773.73
548.89	18751.20
549.09	19062.49
549.29	18687.71
549.48	18808.54
549.68	18777.83
549.88	18597.60
550.07	18648.80
550.27	18906.85
550.47	18988.77
550.67	19322.59
550.86	19605.20
551.06	19762.90
551.26	20518.60
551.46	19850.96
551.65	19678.93
551.85	20240.08
552.05	20051.66
552.25	20068.05
552.44	20225.74
552.64	20018.89
552.84	19947.22
553.03	19857.10
553.23	19812.05
553.43	19830.48
553.63	19822.29
553.82	19887.82
554.02	20068.05
554.22	20567.75
554.41	20905.66
554.61	20653.76
554.81	20866.75
555.01	20037.33
555.20	19771.09
555.40	19791.57
555.60	19703.51
555.79	19422.94
555.99	19091.16
556.19	19015.39
556.38	19238.62
556.58	18939.62
556.78	18771.68
556.98	18867.94
557.17	18601.70
557.37	18605.80
557.57	18548.45
557.76	18202.35
557.96	18145.00
558.16	18644.71
558.35	18575.08
558.55	18902.75
558.75	19326.68
558.94	19168.99
559.14	19945.17
559.34	20129.48
559.53	20453.06
559.73	20844.23
559.93	20823.75
560.12	21329.59
560.32	21216.96
560.52	21081.79
560.71	21515.96
560.91	21032.64
561.11	20885.19
561.30	20485.83
561.50	20704.96
561.70	20733.64
561.89	21057.21
562.09	21259.96
562.29	21325.50
562.48	21094.08
562.68	21212.86
562.88	21083.84
563.07	20600.52
563.27	20428.49
563.47	20442.82
563.66	20321.99
563.86	20094.67
564.06	19898.06
564.25	19955.41
564.45	19723.99
564.64	20059.85
564.84	19633.88
565.04	19787.47
565.23	19545.81
565.43	19734.23
565.63	19644.12
565.82	19787.47
566.02	20068.05
566.22	20078.29
566.41	20315.85
566.61	20584.13
566.80	20739.78
567.00	21145.28
567.20	21157.57
567.39	21814.96
567.59	21731.00
567.78	22290.09
567.98	22269.61
568.18	22808.23
568.37	23217.82
568.57	23731.86
568.77	23889.56
568.96	23983.76
569.16	24131.22
569.35	24852.10
569.55	24671.88
569.75	25370.24
569.94	25671.29
570.14	26650.22
570.33	27256.42
570.53	27811.42
570.73	27917.91
570.92	27412.06
571.12	27035.24
571.31	26820.20
571.51	26089.07
571.71	26668.65
571.90	27080.29
572.10	27944.53
572.29	28014.16
572.49	28307.02
572.68	28737.10
572.88	28511.82
573.08	28390.99
573.27	28802.63
573.47	29513.28
573.66	30307.89
573.86	30354.99
574.05	29404.74
574.25	29171.27
574.45	28997.19
574.64	28051.03
574.84	27862.61
575.03	27858.52
575.23	28157.52
575.42	28188.24
575.62	28751.43
575.82	28405.33
576.01	29097.54
576.21	30451.25
576.40	31903.26
576.60	33541.63
576.79	34196.98
576.99	34924.01
577.18	35073.51
577.38	33977.85
577.57	32677.39
577.77	31096.36
577.97	30731.82
578.16	29863.48
578.36	29802.04
578.55	29421.12
578.75	29328.96
578.94	29283.91
579.14	28972.61
579.33	28403.28
579.53	28864.07
579.72	30987.82
579.92	33443.33
580.11	35081.70
580.31	36556.24
580.50	37627.33
580.70	38467.00
580.90	37586.37
581.09	35409.38
581.29	34588.14
581.48	33185.29
581.68	32374.29
581.87	30996.01
582.07	29388.35
582.26	28716.62
582.46	27436.64
582.65	27592.28
582.85	26834.53
583.04	26799.72
583.24	27483.74
583.43	29208.13
583.63	30314.03
583.82	31598.11
584.02	32898.57
584.21	33066.50
584.41	33488.38
584.60	32753.16
584.80	31890.97
584.99	31467.04
585.19	30510.64
585.38	29871.67
585.58	29343.30
585.77	30062.13
585.97	29691.45
586.16	30107.19
586.35	30068.28
586.55	30258.74
586.74	30393.90
586.94	30645.80
587.13	29869.62
587.33	29640.25
587.52	28665.42
587.72	28173.91
587.91	27502.17
588.11	26965.60
588.30	26521.20
588.50	26564.20
588.69	26398.32
588.89	26564.20
589.08	25867.89
589.28	26132.08
589.47	25669.24
589.66	25284.22
589.86	24995.46
590.05	24913.54
590.25	25126.53
590.44	25423.48
590.64	25804.41
590.83	25906.80
591.03	26670.70
591.22	27637.34
591.41	28360.27
591.61	29398.59
591.80	30467.63
592.00	32155.16
592.19	32751.12
592.39	32308.76
592.58	31477.28
592.78	30819.88
592.97	29425.22
593.16	28429.90
593.36	27756.12
593.55	27383.39
593.75	26781.29
593.94	27045.48
594.14	26795.62
594.33	26900.07
594.52	26037.87
594.72	25874.04
594.91	24981.12
595.11	24841.86
595.30	24419.98
595.49	24862.34
595.69	25126.53
595.88	25235.07
596.08	26371.69
596.27	27166.31
596.47	27375.20
596.66	27895.38
596.85	27463.26
597.05	28124.75
597.24	29032.00
597.44	30461.49
597.63	31229.48
597.82	31972.89
598.02	32273.94
598.21	33562.11
598.40	33166.85
598.60	33553.92
598.79	33181.19
598.99	33406.47
599.18	33070.60
599.37	32794.12
599.57	31864.35
599.76	31047.21
599.96	29740.60
600.15	29767.23
600.34	28497.49
600.54	28245.58
600.73	27125.35
600.92	26801.77
601.12	26123.89
601.31	25689.72
601.51	25560.70
601.70	25671.29
601.89	25646.71
602.09	26484.33
602.28	26689.13
602.47	27520.60
602.67	27895.38
602.86	28622.41
603.05	28200.53
603.25	28382.80
603.44	28223.06
603.63	28337.74
603.83	28266.06
604.02	28593.74
604.22	29077.06
604.41	29529.66
604.60	30527.02
604.80	30649.90
604.99	30926.38
605.18	30963.24
605.38	31088.17
605.57	31434.27
605.76	31014.44
605.96	32142.87
606.15	32196.12
606.34	32445.97
606.54	31692.32
606.73	31497.76
606.92	30242.35
607.12	29793.85
607.31	28722.76
607.50	28094.04
607.70	27801.18
607.89	26996.32
608.08	26226.29
608.28	26250.86
608.47	25939.57
608.66	26211.95
608.85	25904.76
609.05	26058.35
609.24	25767.54
609.43	25517.69
609.63	25378.43
609.82	25265.79
610.01	25292.41
610.21	25585.27
610.40	25384.57
610.59	25800.31
610.79	25853.56
610.98	25863.80
611.17	25554.55
611.36	25990.77
611.56	26248.82
611.75	26400.37
611.94	26820.20
612.14	26797.67
612.33	26705.51
612.52	26685.03
612.71	26549.87
612.91	26762.86
613.10	26818.15
613.29	27666.01
613.49	28831.30
613.68	29228.61
613.87	29908.54
614.06	29759.03
614.26	29742.65
614.45	29113.92
614.64	28425.81
614.83	27928.15
615.03	27049.57
615.22	26922.60
615.41	26175.09
615.60	26181.23
615.80	25857.65
615.99	26029.68
616.18	25304.70
616.38	25210.50
616.57	24508.04
616.76	25214.59
616.95	25079.43
617.15	25296.51
617.34	25108.10
617.53	25228.93
617.72	25210.50
617.92	25112.19
618.11	24721.03
618.30	25347.71
618.49	25468.54
618.68	25472.64
618.88	25677.43
619.07	26003.06
619.26	26007.16
619.45	25605.75
619.65	25183.87
619.84	24702.60
620.03	24376.97
620.22	24979.07
620.42	25149.06
620.61	26433.13
620.80	26431.08
620.99	27481.69
621.18	27461.21
621.38	27543.13
621.57	27432.54
621.76	27119.20
621.95	26945.12
622.15	27133.54
622.34	27182.69
622.53	27192.93
622.72	26988.13
622.91	27111.01
623.11	27661.91
623.30	27731.54
623.49	27663.96
623.68	26918.50
623.87	27258.46
624.07	27192.93
624.26	26711.66
624.45	26461.80
624.64	26799.72
624.83	26562.15
625.03	26351.21
625.22	26250.86
625.41	26404.46
625.60	26859.11
625.79	26564.20
625.98	27315.81
626.18	27203.17
626.37	27414.11
626.56	26834.53
626.75	27000.42
626.94	26189.42
627.14	26062.45
627.33	25917.04
627.52	25869.94
627.71	25863.80
627.90	26324.59
628.09	26900.07
628.29	26500.72
628.48	27115.11
628.67	26771.05
628.86	26818.15
629.05	26490.48
629.24	25974.39
629.43	25704.06
629.63	25689.72
629.82	26052.21
630.01	25175.68
630.20	25370.24
630.39	25368.19
630.58	25032.32
630.78	24503.95
630.97	24805.00
631.16	24557.19
631.35	24805.00
631.54	24186.51
631.73	24424.08
631.92	24284.81
632.11	24161.94
632.31	24364.68
632.50	24284.81
632.69	23852.69
632.88	24569.48
633.07	24206.99
633.26	24209.04
633.45	24004.24
633.65	24522.38
633.84	23846.55
634.03	24206.99
634.22	24325.77
634.41	24166.03
634.60	24567.43
634.79	24704.65
634.98	24743.56
635.17	25431.68
635.37	24901.25
635.56	25190.02
635.75	25183.87
635.94	24706.70
636.13	24995.46
636.32	24577.67
636.51	24524.43
636.70	24628.87
636.89	23920.28
637.08	24618.63
637.28	24159.89
637.47	24182.42
637.66	24159.89
637.85	24194.70
638.04	24102.54
638.23	24071.82
638.42	23721.62
638.61	23998.10
638.80	23799.44
638.99	24084.11
639.18	23844.50
639.38	24247.95
639.57	24071.82
639.76	24139.41
639.95	23637.66
640.14	24034.96
640.33	23715.48
640.52	23631.51
640.71	23629.46
640.90	23647.90
641.09	23506.59
641.28	23537.30
641.47	23740.05
641.66	23701.14
641.85	23592.60
642.04	23684.76
642.24	23811.73
642.43	23946.90
642.62	24305.29
642.81	24254.09
643.00	24137.36
643.19	23975.57
643.38	23807.64
643.57	23977.62
643.76	23824.02
643.95	23707.29
644.14	23707.29
644.33	23723.67
644.52	23641.75
644.71	23828.12
644.90	23330.46
645.09	23510.68
645.28	23516.83
645.47	23436.95
645.66	23496.35
645.85	23254.69
646.04	23449.24
646.23	23641.75
646.42	23420.57
646.61	23867.03
646.80	23801.49
646.99	24520.33
647.18	24741.51
647.37	25585.27
647.56	25632.38
647.75	25794.17
647.95	25939.57
648.14	26334.83
648.33	25845.37
648.52	26238.58
648.71	25734.78
648.90	25685.62
649.09	25071.23
649.28	25079.43
649.47	24919.68
649.66	24964.74
649.85	24772.23
650.04	25171.58
650.23	24850.05
650.42	25218.69
650.61	24639.11
650.79	24831.62
650.98	24972.93
651.17	25052.80
651.36	25056.90
651.55	25077.38
651.74	24934.02
651.93	25249.41
652.12	25534.07
652.31	25314.94
652.50	24862.34
652.69	25376.38
652.88	24761.99
653.07	25208.45
653.26	24653.45
653.45	25296.51
653.64	24583.82
653.83	24403.60
654.02	25656.95
654.21	27614.81
654.40	31553.05
654.59	37389.77
654.78	42130.81
654.97	45024.59
655.16	45837.64
655.35	45905.22
655.54	43185.52
655.73	39099.82
655.92	35393.00
656.11	33633.79
656.30	31911.45
656.48	30539.31
656.67	29302.34
656.86	28378.70
657.05	27545.18
657.24	27352.67
657.43	26605.16
657.62	26347.12
657.81	26322.54
658.00	26144.37
658.19	25634.42
658.38	25558.65
658.57	25130.62
658.76	25472.64
658.95	25001.60
659.13	24809.09
659.32	24886.92
659.51	24991.36
659.70	24848.00
659.89	24483.47
660.08	24839.81
660.27	24839.81
660.46	24792.71
660.65	24901.25
660.84	24956.55
661.03	24940.16
661.22	24909.44
661.40	24837.76
661.59	24682.12
661.78	25126.53
661.97	25071.23
662.16	24843.91
662.35	25067.14
662.54	25327.23
662.73	25140.86
662.92	25521.79
663.11	25650.81
663.29	25603.71
663.48	25855.61
663.67	26150.51
663.86	25427.58
664.05	25933.43
664.24	25648.76
664.43	25599.61
664.62	25583.23
664.80	25835.13
664.99	25458.30
665.18	25546.36
665.37	25517.69
665.56	25558.65
665.75	25343.61
665.94	25804.41
666.13	25140.86
666.31	25450.11
666.50	25142.91
666.69	25441.92
666.88	25257.60
667.07	25364.09
667.26	25626.23
667.45	25562.75
667.63	25415.29
667.82	25536.12
668.01	25890.42
668.20	26052.21
668.39	26093.17
668.58	25980.53
668.76	26140.27
668.95	26007.16
669.14	26168.94
669.33	26130.03
669.52	26207.86
669.71	26345.07
669.90	26818.15
670.08	27004.52
670.27	27283.04
670.46	27704.92
670.65	28089.94
670.84	28450.38
671.03	28366.42
671.21	28505.68
671.40	28575.31
671.59	28124.75
671.78	27663.96
671.97	28059.22
672.15	27459.16
672.34	27235.94
672.53	27162.21
672.72	26875.49
672.91	26809.96
673.09	27190.88
673.28	26893.93
673.47	27025.00
673.66	26699.37
673.85	26568.30
674.04	26447.47
674.22	26756.71
674.41	26932.84
674.60	26846.82
674.79	26867.30
674.98	27354.72
675.16	27035.24
675.35	27465.31
675.54	27735.64
675.73	27772.50
675.91	27410.01
676.10	27532.89
676.29	27684.44
676.48	27602.52
676.67	27807.32
676.85	27977.30
677.04	27915.86
677.23	28161.62
677.42	28264.02
677.60	28243.54
677.79	28169.81
677.98	28456.53
678.17	28603.98
678.36	28665.42
678.54	28524.11
678.73	28886.60
678.92	28458.57
679.11	29091.40
679.29	28452.43
679.48	28210.77
679.67	28393.04
679.86	28147.28
680.04	28134.99
680.23	28522.06
680.42	28548.68
680.61	28724.81
680.79	28556.88
680.98	28898.89
681.17	28405.33
681.36	28663.37
681.54	27864.66
681.73	27903.57
681.92	27895.38
682.11	27803.22
682.29	27762.26
682.48	28034.64
682.67	27911.77
682.85	28630.60
683.04	28462.67
683.23	28898.89
683.42	29175.36
683.60	29349.44
683.79	29556.28
683.98	30334.51
684.17	30518.83
684.35	30541.36
684.54	30289.46
684.73	30201.40
684.91	30107.19
685.10	30178.87
685.29	29537.85
685.48	29365.82
685.66	29040.20
685.85	28984.90
686.04	29079.11
686.22	29457.98
686.41	29427.26
686.60	29032.00
686.78	29226.56
686.97	29138.50
687.16	28532.30
687.35	29167.17
687.53	28362.32
687.72	28612.17
687.91	28587.60
688.09	28354.13
688.28	28812.87
688.47	28984.90
688.65	29079.11
688.84	28948.04
689.03	29173.31
689.21	28993.09
689.40	28816.97
689.59	29189.70
689.77	28968.52
689.96	29687.36
690.15	29380.16
690.33	29924.92
690.52	30133.81
690.71	30221.87
690.89	29738.55
691.08	29722.17
691.27	29425.22
691.45	29679.16
691.64	29150.79
691.83	29494.85
692.01	29371.97
692.20	29171.27
692.39	29077.06
692.57	29101.64
692.76	29150.79
692.95	29058.63
693.13	29077.06
693.32	28935.75
693.50	28620.36
693.69	28839.50
693.88	28565.07
694.06	29359.68
694.25	29005.38
694.44	29113.92
694.62	29089.35
694.81	29167.17
695.00	28798.54
695.18	28923.46
695.37	28886.60
695.55	29357.63
695.74	29752.89
695.93	30520.88
696.11	31039.01
696.30	31374.88
696.49	31118.89
696.67	31524.38
696.86	30565.93
697.04	30783.02
697.23	29926.97
697.42	29886.01
697.60	29797.95
697.79	29347.39
697.97	29021.77
698.16	29269.57
698.35	28798.54
698.53	28870.22
698.72	28542.54
698.90	28540.49
699.09	28421.71
699.28	28280.40
699.46	28046.93
699.65	28450.38
699.83	27946.58
700.02	28286.54
700.21	27827.80
700.39	28304.98
700.58	28304.98
700.76	28497.49
700.95	28350.03
701.13	29046.34
701.32	28984.90
701.51	29263.43
701.69	29544.00
701.88	29587.00
702.06	29507.13
702.25	29107.78
702.43	29091.40
702.62	29111.88
702.81	28966.47
702.99	29072.96
703.18	28575.31
703.36	28323.41
703.55	28327.50
703.73	28757.58
703.92	27940.44
704.10	28411.47
704.29	27899.48
704.48	27770.46
704.66	27498.08
704.85	27993.68
705.03	28270.16
705.22	28272.21
705.40	28962.37
705.59	29093.44
705.77	29490.75
705.96	30012.98
706.14	30201.40
706.33	30613.04
706.51	30832.17
706.70	31170.08
706.89	30856.75
707.07	30576.17
707.26	30506.54
707.44	30877.22
707.63	30383.66
707.81	30101.04
708.00	30162.48
708.18	29167.17
708.37	29345.34
708.55	28925.51
708.74	28898.89
708.92	29161.03
709.11	28798.54
709.29	28855.88
709.48	29009.48
709.66	29120.07
709.85	28974.66
710.03	29191.75
710.22	29103.68
710.40	28679.75
710.59	28593.74
710.77	28917.32
710.96	28522.06
711.14	28608.08
711.33	28868.17
711.51	29279.81
711.70	29230.66
711.88	29523.52
712.07	29693.50
712.25	29857.34
712.44	30074.42
712.62	29861.43
712.81	29521.47
712.99	30191.16
713.18	29875.77
713.36	30068.28
713.54	30010.93
713.73	29656.64
713.91	29638.20
714.10	30205.49
714.28	29826.62
714.47	29812.28
714.65	29339.20
714.84	29419.07
715.02	29005.38
715.21	28606.03
715.39	28669.51
715.58	28681.80
715.76	28573.26
715.94	28501.58
716.13	28454.48
716.31	28958.28
716.50	28532.30
716.68	28823.11
716.87	29226.56
717.05	29251.14
717.24	29318.72
717.42	30086.71
717.60	29742.65
717.79	29503.04
717.97	29453.89
718.16	29513.28
718.34	29498.94
718.53	29347.39
718.71	29201.99
718.89	29515.33
719.08	28880.46
719.26	29056.58
719.45	28851.78
719.63	29068.87
719.82	28964.42
720.00	28882.50
720.18	28743.24
720.37	28718.67
720.55	28649.03
720.74	28730.95
720.92	28530.25
721.10	28847.69
721.29	28814.92
721.47	29173.31
721.66	28819.02
721.84	28657.23
722.02	28659.27
722.21	28868.17
722.39	28968.52
722.58	28765.77
722.76	28644.94
722.94	28429.90
723.13	28706.38
723.31	28628.56
723.50	28001.88
723.68	28466.77
723.86	28206.67
724.05	28603.98
724.23	29097.54
724.41	28862.02
724.60	29101.64
724.78	29224.51
724.97	29396.54
725.15	29509.18
725.33	29378.11
725.52	29357.63
725.70	29173.31
725.88	29105.73
726.07	29046.34
726.25	29134.40
726.44	29197.89
726.62	29197.89
726.80	28724.81
726.99	29451.84
727.17	29367.87
727.35	29666.88
727.54	29247.04
727.72	29529.66
727.90	29482.56
728.09	29521.47
728.27	29412.93
728.45	29439.55
728.64	29627.96
728.82	29759.03
729.00	29382.21
729.19	29673.02
729.37	30232.11
729.55	30770.73
729.74	30846.51
729.92	31323.68
730.10	31741.47
730.29	32138.77
730.47	31536.67
730.65	31692.32
730.84	31069.73
731.02	31428.13
731.20	30672.43
731.39	30873.13
731.57	30850.60
731.75	31096.36
731.94	30727.72
732.12	31012.39
732.30	30907.94
732.49	31557.15
732.67	30770.73
732.85	31151.65
733.03	31327.78
733.22	31479.33
733.40	31256.10
733.58	31143.46
733.77	30977.58
733.95	31051.30
734.13	30727.72
734.32	30877.22
734.50	30701.10
734.68	31135.27
734.86	30944.81
735.05	31327.78
735.23	31045.16
735.41	31012.39
735.60	30729.77
735.78	30674.48
735.96	30701.10
736.14	30881.32
736.33	30281.27
736.51	30668.33
736.69	30643.76
736.87	30430.77
737.06	30000.69
737.24	29992.50
737.42	29972.02
737.61	30225.97
737.79	30309.94
737.97	31073.83
738.15	30907.94
738.34	31641.12
738.52	31100.45
738.70	31352.35
738.88	30770.73
739.07	30598.70
739.25	29595.20
739.43	29900.34
739.61	29222.47
739.80	29324.86
739.98	28702.28
740.16	29201.99
740.34	28358.22
740.52	28776.01
740.71	28278.35
740.89	28603.98
741.07	28730.95
741.25	28991.05
741.44	28501.58
741.62	29384.26
741.80	29265.47
741.98	28952.13
742.17	28638.80
742.35	28696.14
742.53	28708.43
742.71	29007.43
742.89	28341.84
743.08	28188.24
743.26	28339.79
743.44	28356.18
743.62	28065.36
743.80	28122.71
743.99	27987.54
744.17	27864.66
744.35	27999.83
744.53	27911.77
744.71	28210.77
744.90	28239.44
745.08	28036.69
745.26	28235.35
745.44	28335.70
745.62	28098.13
745.81	27954.77
745.99	28182.10
746.17	27862.61
746.35	28208.72
746.53	27922.01
746.72	27958.87
746.90	27803.22
747.08	27948.63
747.26	27340.38
747.44	27915.86
747.62	27461.21
747.81	27434.59
747.99	27788.89
748.17	28008.02
748.35	27987.54
748.53	28026.45
748.71	27995.73
748.90	28677.71
749.08	28835.40
749.26	29083.20
749.44	29052.48
749.62	29046.34
749.80	28477.01
749.99	28812.87
750.17	28544.59
750.35	28530.25
750.53	28636.75
750.71	28558.92
750.89	28585.55
751.07	28259.92
751.26	28153.43
751.44	28440.14
751.62	27952.73
751.80	28194.39
751.98	28202.58
752.16	28284.50
752.34	28276.30
752.53	28704.33
752.71	28544.59
752.89	28646.99
753.07	28440.14
753.25	28507.72
753.43	28403.28
753.61	28730.95
753.79	28415.57
753.98	28221.01
754.16	28610.12
754.34	28894.79
754.52	28886.60
754.70	29050.44
754.88	29101.64
755.06	29957.69
755.24	29730.36
755.42	30518.83
755.60	30850.60
755.79	31419.94
755.97	31770.14
756.15	32732.68
756.33	32931.34
756.51	33465.86
756.69	33541.63
756.87	33832.44
757.05	33977.85
757.23	33351.17
757.41	33134.09
757.60	33003.02
757.78	32787.98
757.96	32624.14
758.14	33033.74
758.32	33066.50
758.50	32720.40
758.68	32773.64
758.86	33261.06
759.04	33738.24
759.22	33846.78
759.40	34186.74
759.58	34663.92
759.76	34846.19
759.94	35089.90
760.13	35571.17
760.31	35714.53
760.49	35214.82
760.67	35329.51
760.85	35177.96
761.03	35522.02
761.21	35239.40
761.39	34917.87
761.57	35589.60
761.75	35366.37
761.93	36294.10
762.11	35743.20
762.29	36386.26
762.47	36160.98
762.65	36478.42
762.83	36414.93
763.01	37330.37
763.19	37473.73
763.37	37856.70
763.55	38282.68
763.73	38962.61
763.91	39214.51
764.09	39636.39
764.27	39304.62
764.45	39116.20
764.64	38935.98
764.82	38391.22
765.00	37780.93
765.18	38088.12
765.36	37320.13
765.54	37205.45
765.72	36558.29
765.90	36724.18
766.08	36236.76
766.26	36593.11
766.44	36586.96
766.62	36838.86
766.80	36689.36
766.98	37383.62
767.16	37193.16
767.34	38190.52
767.52	38081.98
767.70	38428.09
767.88	38403.51
768.06	38202.81
768.24	37744.06
768.42	37268.94
768.60	36888.01
768.78	36875.73
768.96	36408.79
769.13	36511.19
769.31	36148.70
769.49	36648.40
769.67	36023.77
769.85	36699.60
770.03	36335.06
770.21	36265.43
770.39	36197.85
770.57	36179.42
770.75	35769.82
770.93	35782.11
771.11	35376.61
771.29	35503.59
771.47	35354.08
771.65	35233.25
771.83	34913.77
772.01	34838.00
772.19	34528.75
772.37	34659.82
772.55	33803.77
772.73	34704.88
772.91	33842.68
773.09	34248.18
773.27	33566.21
773.44	33779.20
773.62	33269.25
773.80	33449.47
773.98	33283.59
774.16	33136.13
774.34	32896.52
774.52	33224.20
774.70	32636.43
774.88	32486.93
775.06	32429.59
775.24	32491.02
775.42	31970.84
775.60	31976.98
775.78	32380.43
775.95	31946.26
776.13	32036.38
776.31	32325.14
776.49	32019.99
776.67	32106.01
776.85	31139.36
777.03	31878.68
777.21	31548.96
777.39	31551.01
777.57	31376.93
777.75	31802.91
777.92	31618.59
778.10	31206.95
778.28	31684.12
778.46	31432.22
778.64	30828.07
778.82	31340.07
779.00	31024.68
779.18	30625.32
779.36	30334.51
779.53	30791.21
779.71	30907.94
779.89	31661.60
780.07	31518.24
780.25	31897.11
780.43	32075.29
780.61	31770.14
780.79	31544.86
780.96	31735.32
781.14	31231.52
781.32	31151.65
781.50	30924.33
781.68	30881.32
781.86	30463.54
782.04	30688.81
782.21	30848.55
782.39	30731.82
782.57	30516.78
782.75	30234.16
782.93	30174.77
783.11	29853.24
783.29	29828.66
783.46	29736.51
783.64	29410.88
783.82	29439.55
784.00	29632.06
784.18	29486.65
784.36	29777.47
784.54	29941.30
784.71	29605.44
784.89	29787.71
785.07	29695.55
785.25	30174.77
785.43	29257.28
785.60	29500.99
785.78	29113.92
785.96	29013.57
786.14	28515.92
786.32	29103.68
786.50	28796.49
786.67	28945.99
786.85	29093.44
787.03	29023.81
787.21	29433.41
787.39	29933.11
787.56	29759.03
787.74	30031.41
787.92	29619.77
788.10	29400.64
788.28	29185.60
788.45	29273.67
788.63	28618.32
788.81	28436.05
788.99	28327.50
789.17	28509.77
789.34	28122.71
789.52	28114.52
789.70	28118.61
789.88	28153.43
790.06	27985.49
790.23	28317.26
790.41	28399.18
790.59	28147.28
790.77	27936.34
790.95	27760.22
791.12	27887.19
791.30	27754.07
791.48	27510.36
791.66	28022.36
791.83	27616.86
792.01	27553.37
792.19	27903.57
792.37	27934.29
792.54	28610.12
792.72	29210.18
792.90	29169.22
793.08	29554.24
793.25	29957.69
793.43	29738.55
793.61	29621.82
793.79	29091.40
793.96	28739.15
794.14	28417.61
794.32	27999.83
794.50	27983.44
794.67	27737.69
794.85	27352.67
795.03	27260.51
795.21	26586.73
795.38	26728.04
795.56	26103.41
795.74	26228.34
795.92	26306.16
796.09	25650.81
796.27	26295.92
796.45	25699.96
796.62	26066.55
796.80	26146.42
796.98	26300.01
797.16	25968.24
797.33	26087.03
797.51	25833.08
797.69	25732.73
797.86	25804.41
798.04	25697.91
798.22	25319.04
798.40	25968.24
798.57	25433.72
798.75	25771.64
798.93	25163.39
799.10	25204.35
799.28	24999.55
799.46	25157.25
799.63	24905.35
799.81	24985.22
799.99	24995.46
800.17	24917.64
800.34	24669.83
800.52	24661.64
800.70	24479.37
800.87	24682.12
801.05	24700.55
801.23	24729.22
801.40	24379.02
801.58	24680.07
801.76	24491.66
801.93	24653.45
802.11	24405.64
802.29	24592.01
802.46	24067.73
802.64	24213.13
802.82	24137.36
802.99	24155.79
803.17	23994.00
803.35	24252.05
803.52	24241.81
803.70	23940.75
803.88	23787.16
804.05	23748.25
804.23	23955.09
804.41	24553.10
804.58	24178.32
804.76	24766.09
804.94	24700.55
805.11	25063.04
805.29	24897.16
805.46	25138.82
805.64	24395.40
805.82	24708.74
805.99	24483.47
806.17	24694.41
806.35	24729.22
806.52	24512.14
806.70	24399.50
806.87	24395.40
807.05	24268.43
807.23	24051.34
807.40	23879.32
807.58	23938.71
807.76	24041.11
807.93	24057.49
808.11	23453.34
808.28	23516.83
808.46	23445.15
808.64	23611.03
808.81	23379.61
808.99	23785.11
809.16	23396.00
809.34	23699.09
809.52	23451.29
809.69	23428.76
809.87	23375.52
810.04	23496.35
810.22	23439.00
810.40	22967.97
810.57	23295.64
810.75	23074.46
810.92	22828.71
811.10	22689.45
811.28	22793.89
811.45	22773.41
811.63	23045.79
811.80	22675.11
811.98	22580.90
812.15	23244.45
812.33	22972.07
812.51	22965.92
812.68	23150.24
812.86	23363.23
813.03	23283.36
813.21	23250.59
813.38	23367.32
813.56	22802.08
813.74	22693.54
813.91	22699.69
814.09	22554.28
814.26	22511.27
814.44	22419.11
814.61	22488.74
814.79	22451.88
814.96	22752.93
815.14	22433.45
815.31	22736.55
815.49	22415.02
815.67	22521.51
815.84	22511.27
816.02	22484.65
816.19	22709.93
816.37	22689.45
816.54	22591.14
816.72	22535.85
816.89	22576.81
817.07	22445.74
817.24	22142.64
817.42	22288.04
817.59	21788.34
817.77	22064.82
817.94	21671.61
818.12	22142.64
818.29	21864.11
818.47	21986.99
818.64	21849.78
818.82	22087.34
818.99	21771.96
819.17	21913.27
819.34	22304.43
819.52	22625.96
819.69	22476.46
819.87	22587.05
820.04	22349.48
820.22	22068.91
820.39	22142.64
820.57	21984.94
820.74	21614.26
820.92	21749.43
821.09	21739.19
821.27	21812.92
821.44	21771.96
821.62	21753.52
821.79	21548.73
821.97	22124.21
822.14	21710.52
822.32	21475.00
822.49	21548.73
822.67	21509.82
822.84	21587.64
823.02	21475.00
823.19	21434.04
823.37	21384.89
823.54	21366.46
823.72	21147.33
823.89	21356.22
824.06	21096.13
824.24	21235.39
824.41	21167.80
824.59	21176.00
824.76	21372.60
824.94	21317.31
825.11	21436.09
825.29	21313.21
825.46	21489.34
825.63	21878.45
825.81	21851.83
825.98	22070.96
826.16	22306.48
826.33	21997.23
826.51	21888.69
826.68	22077.10
826.86	22281.90
827.03	21677.75
827.20	21495.48
827.38	21198.52
827.55	21343.93
827.73	20977.34
827.90	20979.39
828.07	21057.21
828.25	21141.18
828.42	20879.04
828.60	20762.31
828.77	20612.81
828.95	20670.15
829.12	20950.72
829.29	20465.35
829.47	20338.38
829.64	20367.05
829.82	20205.26
829.99	20172.49
830.16	20072.14
830.34	19766.99
830.51	19715.80
830.69	20219.60
830.86	20033.23
831.03	19859.15
831.21	20145.87
831.38	19986.13
831.55	19715.80
831.73	20143.82
831.90	20176.59
832.08	20059.85
832.25	20254.41
832.42	20188.88
832.60	19951.31
832.77	20338.38
832.94	19916.50
833.12	20256.46
833.29	19723.99
833.47	20072.14
833.64	19873.49
833.81	19949.26
833.99	19637.97
834.16	19906.26
834.33	19664.60
834.51	19642.07
834.68	19668.69
834.85	19687.12
835.03	19582.68
835.20	19822.29
835.37	19527.38
835.55	19535.57
835.72	19375.83
835.90	19357.40
836.07	19549.91
836.24	19179.23
836.42	19613.40
836.59	19549.91
836.76	19398.36
836.94	19502.81
837.11	19150.56
837.28	19115.74
837.46	19128.03
837.63	19101.40
837.80	19160.80
837.97	19207.90
838.15	19257.05
838.32	19080.92
838.49	19146.46
838.67	19298.01
838.84	19007.20
839.01	19250.91
839.19	19115.74
839.36	18898.66
839.53	19056.35
839.71	19211.99
839.88	19023.58
840.05	18966.24
840.22	18988.77
840.40	19033.82
840.57	18767.59
840.74	19168.99
840.92	18986.72
841.09	19144.41
841.26	18835.17
841.43	18996.96
841.61	18994.91
841.78	18849.50
841.95	18622.18
842.13	18921.18
842.30	18872.03
842.47	18880.22
842.64	18786.02
842.82	18700.00
842.99	18677.48
843.16	18804.45
843.34	18601.70
843.51	18796.26
843.68	18577.12
843.85	18683.62
844.03	18675.43
844.20	18638.56
844.37	18728.67
844.54	18546.40
844.72	18241.26
844.89	18831.07
845.06	18388.71
845.23	18464.49
845.41	18374.38
845.58	18372.33
845.75	18327.27
845.92	18507.49
846.10	18489.06
846.27	18401.00
846.44	18487.01
846.61	18579.17
846.78	18233.07
846.96	18439.91
847.13	18177.77
847.30	18364.14
847.47	18271.98
847.65	18310.89
847.82	18302.70
847.99	18382.57
848.16	18231.02
848.33	18331.37
848.51	17649.39
848.68	18231.02
848.85	18276.07
849.02	17970.93
849.19	17870.58
849.37	18251.50
849.54	17911.53
849.71	17676.02
849.88	17843.95
850.05	17762.03
850.23	17698.55
850.40	17909.49
850.57	17958.64
850.74	17962.73
850.91	17827.57
851.09	17927.92
851.26	17751.79
851.43	18280.17
851.60	17868.53
851.77	18093.80
851.95	17729.27
852.12	17805.04
852.29	17768.18
852.46	17792.75
852.63	17901.29
852.80	17759.98
852.98	17743.60
853.15	18005.74
853.32	17682.16
853.49	17813.23
853.66	17673.97
853.83	17714.93
854.01	17387.25
854.18	17729.27
854.35	17520.37
854.52	17424.12
854.69	17112.83
854.86	17688.31
855.03	17469.17
855.21	17471.22
855.38	17489.65
855.55	17467.13
855.72	17374.97
855.89	17434.36
856.06	17360.63
856.23	17383.16
856.41	17239.80
856.58	17510.13
856.75	17352.44
856.92	17049.34
857.09	16885.50
857.26	16865.02
857.43	16893.69
857.60	17053.44
857.78	16824.06
857.95	17073.92
858.12	17098.49
858.29	16973.56
858.46	16799.49
858.63	17065.72
858.80	16811.78
858.97	16875.26
859.14	16899.84
859.32	16867.07
859.49	16723.71
859.66	16803.58
859.83	16875.26
860.00	16705.28
860.17	16664.32
860.34	16826.11
860.51	16930.56
860.68	16807.68
860.85	16635.65
861.02	16437.00
861.20	16459.52
861.37	16342.79
861.54	16340.74
861.71	16445.19
861.88	16604.93
862.05	16541.44
862.22	16355.08
862.39	16533.25
862.56	16426.76
862.73	16305.93
862.90	16254.73
863.07	16318.22
863.24	16322.31
863.41	16244.49
863.59	16162.57
863.76	16267.02
863.93	16023.31
864.10	15875.85
864.27	16142.09
864.44	15941.39
864.61	16158.47
864.78	16013.07
864.95	15843.09
865.12	15920.91
865.29	15929.10
865.46	16103.18
865.63	15759.12
865.80	15836.94
865.97	15623.95
866.14	15802.13
866.31	15603.47
866.48	15761.17
866.65	15644.43
866.82	15646.48
866.99	15759.12
867.16	15732.50
867.33	15355.67
867.50	15283.99
867.67	15468.31
867.84	15372.05
868.01	15015.71
868.18	15095.58
868.35	15589.14
868.52	15214.36
868.69	15122.20
868.86	14976.80
869.03	15025.95
869.20	15243.03
869.37	14925.60
869.54	14798.62
869.71	15015.71
869.88	14901.02
870.05	14958.36
870.22	15036.19
870.39	14669.60
870.56	14931.74
870.73	14567.20
870.90	14743.33
871.07	14696.22
871.24	14571.30
871.41	14565.15
871.58	14315.30
871.75	14583.59
871.92	14257.96
872.09	14262.05
872.26	14325.54
872.43	14432.04
872.60	14362.40
872.77	14112.55
872.94	14133.03
873.11	14055.21
873.28	13827.88
873.45	14077.74
873.62	13930.28
873.79	13682.48
873.96	13846.32
874.13	13698.86
874.30	13623.09
874.47	13834.03
874.64	13848.36
874.80	13618.99
874.97	13766.45
875.14	13356.85
875.31	13348.66
875.48	13354.80
875.65	13614.90
875.82	13266.74
875.99	13332.28
876.16	13295.41
876.33	13479.73
876.50	13233.97
876.67	13375.28
876.84	13207.35
877.01	13190.97
877.17	13276.98
877.34	13125.43
877.51	13029.18
877.68	12930.87
877.85	13119.29
878.02	12803.90
878.19	12812.09
878.36	12789.56
878.53	12822.33
878.70	12836.67
878.87	12635.97
879.03	12631.87
879.20	12533.57
879.37	12263.24
879.54	12484.42
879.71	12560.19
879.88	12709.69
880.05	12349.25
880.22	12463.94
880.39	12156.74
880.55	12066.63
880.72	12220.23
880.89	12101.45
881.06	12140.36
881.23	11935.56
881.40	12068.68
881.57	11818.83
881.74	11779.92
881.90	11751.24
882.07	11802.44
882.24	11620.17
882.41	11540.30
882.58	11589.46
882.75	11493.20
882.92	11263.83
883.08	11347.79
883.25	11405.14
883.42	11351.89
883.59	11140.95
883.76	10936.15
883.93	10942.30
884.09	10919.77
884.26	10987.35
884.43	11097.94
884.60	10786.65
884.77	10925.91
884.94	10676.06
885.10	10684.25
885.27	10764.12
885.44	10774.36
885.61	10544.99
885.78	10690.40
885.95	10467.17
886.11	10393.44
886.28	10211.17
886.45	10346.34
886.62	10178.40
886.79	10413.92
886.96	10100.58
887.12	10133.35
887.29	10080.10
887.46	9953.13
887.63	9897.83
887.80	9983.85
887.96	9973.61
888.13	9740.14
888.30	9774.95
888.47	9486.19
888.64	9609.07
888.80	9502.58
888.97	9402.22
889.14	9457.52
889.31	9404.27
889.47	9535.34
889.64	9226.10
889.81	9135.99
889.98	9324.40
890.15	9058.17
890.31	9146.23
890.48	9146.23
890.65	9146.23
890.82	9146.23
890.98	9146.23
891.15	9146.23
>>>>>End Processed Spectral Data<<<<<
