SpectraSuite Data File
++++++++++++++++++++++++++++++++++++
Date: Fri Jan 24 17:03:29 MST 2020
User: Molly
Dark Spectrum Present: Yes
Reference Spectrum Present: Yes
Number of Sampled Component Spectra: 1
Spectrometers: USB4E03280
Integration Time (usec): 32000 (USB4E03280)
Spectra Averaged: 1 (USB4E03280)
Boxcar Smoothing: 0 (USB4E03280)
Correct for Electrical Dark: No (USB4E03280)
Strobe/Lamp Enabled: Yes (USB4E03280)
Correct for Detector Non-linearity: No (USB4E03280)
Correct for Stray Light: No (USB4E03280)
Number of Pixels in Processed Spectrum: 3648
>>>>>Begin Processed Spectral Data<<<<<
177.66	1210.35
177.88	1210.35
178.10	1210.35
178.32	1265.64
178.54	1298.41
178.76	1177.58
178.98	1224.69
179.19	1189.87
179.41	1214.45
179.63	1202.16
179.85	1214.45
180.07	1169.39
180.29	1271.79
180.51	1220.59
180.72	1204.21
180.94	1245.16
181.16	1155.05
181.38	1228.78
181.60	1241.07
181.82	1263.60
182.04	1202.16
182.25	1234.93
182.47	1232.88
182.69	1230.83
182.91	1234.93
183.13	1273.84
183.35	1294.32
183.56	1212.40
183.78	1228.78
184.00	1273.84
184.22	1210.35
184.44	1222.64
184.66	1275.88
184.87	1155.05
185.09	1206.25
185.31	1265.64
185.53	1187.82
185.75	1241.07
185.97	1286.12
186.18	1251.31
186.40	1310.70
186.62	1196.01
186.84	1267.69
187.06	1251.31
187.28	1273.84
187.49	1269.74
187.71	1163.25
187.93	1247.21
188.15	1206.25
188.37	1327.08
188.59	1171.44
188.80	1236.97
189.02	1263.60
189.24	1253.36
189.46	1245.16
189.68	1245.16
189.89	1226.73
190.11	1226.73
190.33	1206.25
190.55	1279.98
190.77	1228.78
190.98	1241.07
191.20	1228.78
191.42	1222.64
191.64	1214.45
191.86	1196.01
192.07	1228.78
192.29	1204.21
192.51	1251.31
192.73	1185.77
192.95	1259.50
193.16	1228.78
193.38	1331.18
193.60	1245.16
193.82	1230.83
194.04	1157.10
194.25	1288.17
194.47	1243.12
194.69	1218.54
194.91	1298.41
195.13	1130.48
195.34	1236.97
195.56	1234.93
195.78	1282.03
196.00	1259.50
196.22	1183.73
196.43	1267.69
196.65	1202.16
196.87	1175.53
197.09	1224.69
197.30	1214.45
197.52	1255.40
197.74	1232.88
197.96	1286.12
198.18	1224.69
198.39	1312.75
198.61	1114.10
198.83	1263.60
199.05	1263.60
199.26	1230.83
199.48	1185.77
199.70	1222.64
199.92	1208.30
200.13	1220.59
200.35	1206.25
200.57	1167.34
200.79	1191.92
201.00	1226.73
201.22	1257.45
201.44	1249.26
201.66	1300.46
201.88	1251.31
202.09	1243.12
202.31	1206.25
202.53	1226.73
202.75	1202.16
202.96	1253.36
203.18	1200.11
203.40	1224.69
203.62	1236.97
203.83	1167.34
204.05	1193.97
204.27	1300.46
204.49	1239.02
204.70	1257.45
204.92	1191.92
205.14	1187.82
205.35	1208.30
205.57	1271.79
205.79	1198.06
206.01	1251.31
206.22	1200.11
206.44	1191.92
206.66	1222.64
206.88	1183.73
207.09	1261.55
207.31	1267.69
207.53	1185.77
207.75	1220.59
207.96	1204.21
208.18	1284.08
208.40	1236.97
208.61	1284.08
208.83	1245.16
209.05	1210.35
209.27	1163.25
209.48	1239.02
209.70	1216.49
209.92	1243.12
210.14	1181.68
210.35	1302.51
210.57	1294.32
210.79	1220.59
211.00	1171.44
211.22	1216.49
211.44	1298.41
211.66	1241.07
211.87	1232.88
212.09	1187.82
212.31	1300.46
212.52	1253.36
212.74	1257.45
212.96	1261.55
213.17	1216.49
213.39	1220.59
213.61	1275.88
213.83	1196.01
214.04	1189.87
214.26	1150.96
214.48	1288.17
214.69	1249.26
214.91	1300.46
215.13	1216.49
215.34	1202.16
215.56	1247.21
215.78	1265.64
216.00	1208.30
216.21	1271.79
216.43	1239.02
216.65	1214.45
216.86	1230.83
217.08	1171.44
217.30	1282.03
217.51	1241.07
217.73	1312.75
217.95	1329.13
218.16	1202.16
218.38	1265.64
218.60	1265.64
218.81	1218.54
219.03	1245.16
219.25	1202.16
219.46	1257.45
219.68	1222.64
219.90	1187.82
220.11	1290.22
220.33	1216.49
220.55	1236.97
220.76	1255.40
220.98	1171.44
221.20	1253.36
221.41	1183.73
221.63	1236.97
221.85	1202.16
222.06	1318.89
222.28	1173.49
222.50	1253.36
222.71	1286.12
222.93	1218.54
223.15	1200.11
223.36	1298.41
223.58	1234.93
223.80	1202.16
224.01	1236.97
224.23	1234.93
224.45	1249.26
224.66	1189.87
224.88	1230.83
225.10	1249.26
225.31	1316.84
225.53	1216.49
225.75	1263.60
225.96	1265.64
226.18	1239.02
226.39	1230.83
226.61	1214.45
226.83	1249.26
227.04	1257.45
227.26	1296.36
227.48	1267.69
227.69	1173.49
227.91	1226.73
228.13	1247.21
228.34	1204.21
228.56	1253.36
228.77	1187.82
228.99	1236.97
229.21	1196.01
229.42	1198.06
229.64	1193.97
229.86	1200.11
230.07	1245.16
230.29	1234.93
230.50	1185.77
230.72	1171.44
230.94	1249.26
231.15	1234.93
231.37	1200.11
231.58	1187.82
231.80	1298.41
232.02	1196.01
232.23	1286.12
232.45	1212.40
232.67	1253.36
232.88	1282.03
233.10	1232.88
233.31	1314.80
233.53	1222.64
233.75	1187.82
233.96	1171.44
234.18	1245.16
234.39	1155.05
234.61	1208.30
234.83	1202.16
235.04	1208.30
235.26	1216.49
235.47	1198.06
235.69	1150.96
235.91	1275.88
236.12	1251.31
236.34	1255.40
236.55	1196.01
236.77	1253.36
236.99	1282.03
237.20	1179.63
237.42	1300.46
237.63	1196.01
237.85	1200.11
238.06	1247.21
238.28	1198.06
238.50	1222.64
238.71	1191.92
238.93	1183.73
239.14	1292.27
239.36	1300.46
239.58	1243.12
239.79	1165.29
240.01	1249.26
240.22	1255.40
240.44	1249.26
240.65	1234.93
240.87	1259.50
241.09	1204.21
241.30	1247.21
241.52	1173.49
241.73	1245.16
241.95	1245.16
242.16	1263.60
242.38	1165.29
242.59	1099.76
242.81	1208.30
243.03	1243.12
243.24	1243.12
243.46	1230.83
243.67	1220.59
243.89	1251.31
244.10	1196.01
244.32	1179.63
244.53	1257.45
244.75	1198.06
244.97	1253.36
245.18	1251.31
245.40	1249.26
245.61	1179.63
245.83	1200.11
246.04	1239.02
246.26	1312.75
246.47	1275.88
246.69	1255.40
246.90	1187.82
247.12	1282.03
247.34	1241.07
247.55	1220.59
247.77	1228.78
247.98	1196.01
248.20	1163.25
248.41	1257.45
248.63	1275.88
248.84	1202.16
249.06	1198.06
249.27	1220.59
249.49	1249.26
249.70	1253.36
249.92	1224.69
250.13	1288.17
250.35	1284.08
250.56	1282.03
250.78	1204.21
251.00	1226.73
251.21	1267.69
251.43	1247.21
251.64	1312.75
251.86	1239.02
252.07	1288.17
252.29	1241.07
252.50	1232.88
252.72	1271.79
252.93	1198.06
253.15	1257.45
253.36	1249.26
253.58	1212.40
253.79	1204.21
254.01	1218.54
254.22	1198.06
254.44	1216.49
254.65	1210.35
254.87	1232.88
255.08	1206.25
255.30	1243.12
255.51	1191.92
255.73	1236.97
255.94	1155.05
256.16	1241.07
256.37	1210.35
256.59	1257.45
256.80	1216.49
257.02	1257.45
257.23	1175.53
257.45	1179.63
257.66	1204.21
257.88	1220.59
258.09	1267.69
258.31	1236.97
258.52	1148.91
258.74	1310.70
258.95	1181.68
259.16	1279.98
259.38	1243.12
259.59	1220.59
259.81	1153.01
260.02	1273.84
260.24	1247.21
260.45	1253.36
260.67	1243.12
260.88	1310.70
261.10	1222.64
261.31	1222.64
261.53	1232.88
261.74	1208.30
261.96	1241.07
262.17	1210.35
262.39	1216.49
262.60	1175.53
262.81	1228.78
263.03	1206.25
263.24	1196.01
263.46	1232.88
263.67	1335.28
263.89	1173.49
264.10	1251.31
264.32	1216.49
264.53	1241.07
264.75	1247.21
264.96	1245.16
265.17	1181.68
265.39	1224.69
265.60	1216.49
265.82	1169.39
266.03	1175.53
266.25	1267.69
266.46	1269.74
266.68	1263.60
266.89	1200.11
267.10	1241.07
267.32	1191.92
267.53	1249.26
267.75	1179.63
267.96	1177.58
268.18	1191.92
268.39	1210.35
268.61	1214.45
268.82	1259.50
269.03	1251.31
269.25	1193.97
269.46	1239.02
269.68	1277.93
269.89	1167.34
270.11	1243.12
270.32	1241.07
270.53	1222.64
270.75	1245.16
270.96	1202.16
271.18	1312.75
271.39	1196.01
271.60	1243.12
271.82	1243.12
272.03	1150.96
272.25	1247.21
272.46	1230.83
272.68	1210.35
272.89	1288.17
273.10	1198.06
273.32	1191.92
273.53	1202.16
273.75	1247.21
273.96	1202.16
274.17	1220.59
274.39	1239.02
274.60	1204.21
274.82	1239.02
275.03	1304.56
275.24	1300.46
275.46	1257.45
275.67	1239.02
275.89	1288.17
276.10	1204.21
276.31	1267.69
276.53	1345.52
276.74	1318.89
276.96	1255.40
277.17	1222.64
277.38	1206.25
277.60	1222.64
277.81	1187.82
278.02	1241.07
278.24	1314.80
278.45	1146.86
278.67	1214.45
278.88	1271.79
279.09	1257.45
279.31	1208.30
279.52	1193.97
279.73	1261.55
279.95	1245.16
280.16	1157.10
280.38	1247.21
280.59	1298.41
280.80	1148.91
281.02	1220.59
281.23	1228.78
281.44	1191.92
281.66	1245.16
281.87	1189.87
282.09	1193.97
282.30	1253.36
282.51	1247.21
282.73	1193.97
282.94	1296.36
283.15	1234.93
283.37	1167.34
283.58	1247.21
283.79	1212.40
284.01	1245.16
284.22	1298.41
284.43	1271.79
284.65	1284.08
284.86	1218.54
285.07	1298.41
285.29	1196.01
285.50	1183.73
285.72	1277.93
285.93	1163.25
286.14	1189.87
286.36	1243.12
286.57	1181.68
286.78	1218.54
287.00	1255.40
287.21	1204.21
287.42	1312.75
287.64	1191.92
287.85	1335.28
288.06	1196.01
288.28	1261.55
288.49	1214.45
288.70	1232.88
288.92	1234.93
289.13	1249.26
289.34	1251.31
289.56	1214.45
289.77	1222.64
289.98	1269.74
290.19	1226.73
290.41	1226.73
290.62	1234.93
290.83	1220.59
291.05	1204.21
291.26	1251.31
291.47	1230.83
291.69	1228.78
291.90	1204.21
292.11	1241.07
292.33	1245.16
292.54	1232.88
292.75	1257.45
292.97	1253.36
293.18	1204.21
293.39	1255.40
293.60	1202.16
293.82	1193.97
294.03	1288.17
294.24	1236.97
294.46	1277.93
294.67	1220.59
294.88	1241.07
295.10	1265.64
295.31	1290.22
295.52	1187.82
295.73	1212.40
295.95	1249.26
296.16	1255.40
296.37	1218.54
296.59	1122.29
296.80	1189.87
297.01	1167.34
297.22	1185.77
297.44	1241.07
297.65	1228.78
297.86	1226.73
298.08	1169.39
298.29	1245.16
298.50	1202.16
298.71	1226.73
298.93	1286.12
299.14	1257.45
299.35	1239.02
299.56	1251.31
299.78	1306.60
299.99	1218.54
300.20	1212.40
300.42	1253.36
300.63	1212.40
300.84	1214.45
301.05	1273.84
301.27	1212.40
301.48	1179.63
301.69	1263.60
301.90	1183.73
302.12	1253.36
302.33	1185.77
302.54	1236.97
302.75	1214.45
302.97	1179.63
303.18	1214.45
303.39	1206.25
303.60	1193.97
303.82	1306.60
304.03	1230.83
304.24	1234.93
304.45	1220.59
304.67	1232.88
304.88	1241.07
305.09	1202.16
305.30	1241.07
305.52	1226.73
305.73	1196.01
305.94	1210.35
306.15	1286.12
306.37	1220.59
306.58	1325.04
306.79	1247.21
307.00	1279.98
307.22	1200.11
307.43	1179.63
307.64	1226.73
307.85	1169.39
308.06	1239.02
308.28	1228.78
308.49	1206.25
308.70	1189.87
308.91	1265.64
309.13	1196.01
309.34	1187.82
309.55	1214.45
309.76	1241.07
309.97	1302.51
310.19	1206.25
310.40	1241.07
310.61	1230.83
310.82	1243.12
311.04	1267.69
311.25	1263.60
311.46	1202.16
311.67	1185.77
311.88	1265.64
312.10	1282.03
312.31	1271.79
312.52	1210.35
312.73	1222.64
312.94	1251.31
313.16	1206.25
313.37	1284.08
313.58	1263.60
313.79	1263.60
314.00	1210.35
314.22	1230.83
314.43	1181.68
314.64	1210.35
314.85	1241.07
315.06	1251.31
315.27	1224.69
315.49	1167.34
315.70	1216.49
315.91	1257.45
316.12	1200.11
316.33	1239.02
316.55	1224.69
316.76	1304.56
316.97	1216.49
317.18	1263.60
317.39	1261.55
317.60	1304.56
317.82	1282.03
318.03	1298.41
318.24	1200.11
318.45	1253.36
318.66	1163.25
318.88	1220.59
319.09	1304.56
319.30	1241.07
319.51	1318.89
319.72	1189.87
319.93	1171.44
320.15	1220.59
320.36	1196.01
320.57	1226.73
320.78	1294.32
320.99	1269.74
321.20	1232.88
321.41	1175.53
321.63	1177.58
321.84	1214.45
322.05	1253.36
322.26	1214.45
322.47	1253.36
322.68	1325.04
322.90	1222.64
323.11	1265.64
323.32	1245.16
323.53	1228.78
323.74	1230.83
323.95	1169.39
324.16	1253.36
324.38	1196.01
324.59	1216.49
324.80	1232.88
325.01	1230.83
325.22	1312.75
325.43	1267.69
325.64	1177.58
325.85	1138.67
326.07	1232.88
326.28	1210.35
326.49	1284.08
326.70	1230.83
326.91	1304.56
327.12	1245.16
327.33	1206.25
327.54	1249.26
327.76	1183.73
327.97	1322.99
328.18	1310.70
328.39	1200.11
328.60	1267.69
328.81	1230.83
329.02	1267.69
329.23	1255.40
329.45	1245.16
329.66	1232.88
329.87	1216.49
330.08	1259.50
330.29	1161.20
330.50	1263.60
330.71	1267.69
330.92	1243.12
331.13	1284.08
331.34	1212.40
331.56	1216.49
331.77	1236.97
331.98	1163.25
332.19	1294.32
332.40	1243.12
332.61	1210.35
332.82	1243.12
333.03	1204.21
333.24	1277.93
333.45	1198.06
333.67	1173.49
333.88	1175.53
334.09	1255.40
334.30	1257.45
334.51	1267.69
334.72	1257.45
334.93	1275.88
335.14	1257.45
335.35	1247.21
335.56	1216.49
335.77	1241.07
335.98	1251.31
336.19	1232.88
336.41	1263.60
336.62	1273.84
336.83	1255.40
337.04	1257.45
337.25	1187.82
337.46	1187.82
337.67	1200.11
337.88	1249.26
338.09	1255.40
338.30	1243.12
338.51	1224.69
338.72	1210.35
338.93	1253.36
339.14	1245.16
339.35	1224.69
339.57	1181.68
339.78	1222.64
339.99	1204.21
340.20	1265.64
340.41	1218.54
340.62	1290.22
340.83	1279.98
341.04	1275.88
341.25	1259.50
341.46	1234.93
341.67	1218.54
341.88	1206.25
342.09	1196.01
342.30	1261.55
342.51	1234.93
342.72	1279.98
342.93	1243.12
343.14	1222.64
343.35	1218.54
343.56	1265.64
343.77	1206.25
343.98	1245.16
344.19	1300.46
344.41	1232.88
344.62	1218.54
344.83	1142.77
345.04	1302.51
345.25	1253.36
345.46	1148.91
345.67	1155.05
345.88	1222.64
346.09	1267.69
346.30	1200.11
346.51	1290.22
346.72	1277.93
346.93	1185.77
347.14	1245.16
347.35	1171.44
347.56	1198.06
347.77	1210.35
347.98	1173.49
348.19	1167.34
348.40	1241.07
348.61	1261.55
348.82	1181.68
349.03	1265.64
349.24	1150.96
349.45	1171.44
349.66	1310.70
349.87	1245.16
350.08	1200.11
350.29	1239.02
350.50	1267.69
350.71	1226.73
350.92	1200.11
351.13	1220.59
351.34	1202.16
351.55	1216.49
351.76	1241.07
351.97	1290.22
352.18	1224.69
352.39	1300.46
352.60	1177.58
352.81	1218.54
353.02	1214.45
353.23	1236.97
353.44	1247.21
353.65	1331.18
353.86	1308.65
354.07	1230.83
354.28	1261.55
354.49	1239.02
354.70	1191.92
354.90	1269.74
355.11	1210.35
355.32	1255.40
355.53	1185.77
355.74	1189.87
355.95	1196.01
356.16	1171.44
356.37	1275.88
356.58	1222.64
356.79	1224.69
357.00	1181.68
357.21	1308.65
357.42	1202.16
357.63	1234.93
357.84	1273.84
358.05	1265.64
358.26	1232.88
358.47	1255.40
358.68	1169.39
358.89	1210.35
359.10	1191.92
359.31	1212.40
359.52	1245.16
359.73	1222.64
359.93	1134.57
360.14	1247.21
360.35	1212.40
360.56	1193.97
360.77	1247.21
360.98	1220.59
361.19	1208.30
361.40	1284.08
361.61	1230.83
361.82	1236.97
362.03	1216.49
362.24	1257.45
362.45	1275.88
362.66	1181.68
362.87	1318.89
363.07	1234.93
363.28	1218.54
363.49	1140.72
363.70	1210.35
363.91	1257.45
364.12	1202.16
364.33	1124.33
364.54	1292.27
364.75	1296.36
364.96	1241.07
365.17	1175.53
365.38	1245.16
365.58	1236.97
365.79	1173.49
366.00	1202.16
366.21	1226.73
366.42	1230.83
366.63	1181.68
366.84	1234.93
367.05	1216.49
367.26	1269.74
367.47	1206.25
367.67	1204.21
367.88	1243.12
368.09	1263.60
368.30	1224.69
368.51	1263.60
368.72	1269.74
368.93	1279.98
369.14	1271.79
369.35	1316.84
369.56	1200.11
369.76	1236.97
369.97	1226.73
370.18	1157.10
370.39	1269.74
370.60	1302.51
370.81	1224.69
371.02	1261.55
371.23	1269.74
371.43	1204.21
371.64	1153.01
371.85	1173.49
372.06	1245.16
372.27	1167.34
372.48	1220.59
372.69	1177.58
372.90	1198.06
373.10	1222.64
373.31	1210.35
373.52	1191.92
373.73	1298.41
373.94	1253.36
374.15	1224.69
374.36	1191.92
374.56	1230.83
374.77	1216.49
374.98	1150.96
375.19	1230.83
375.40	1212.40
375.61	1265.64
375.82	1220.59
376.02	1200.11
376.23	1204.21
376.44	1241.07
376.65	1183.73
376.86	1251.31
377.07	1155.05
377.28	1265.64
377.48	1175.53
377.69	1218.54
377.90	1239.02
378.11	1216.49
378.32	1112.05
378.53	1224.69
378.73	1220.59
378.94	1210.35
379.15	1275.88
379.36	1239.02
379.57	1218.54
379.78	1296.36
379.98	1259.50
380.19	1208.30
380.40	1236.97
380.61	1206.25
380.82	1208.30
381.03	1193.97
381.23	1288.17
381.44	1263.60
381.65	1216.49
381.86	1265.64
382.07	1204.21
382.27	1175.53
382.48	1196.01
382.69	1208.30
382.90	1269.74
383.11	1191.92
383.32	1222.64
383.52	1253.36
383.73	1214.45
383.94	1243.12
384.15	1142.77
384.36	1163.25
384.56	1214.45
384.77	1265.64
384.98	1286.12
385.19	1191.92
385.40	1300.46
385.60	1314.80
385.81	1277.93
386.02	1200.11
386.23	1208.30
386.43	1179.63
386.64	1263.60
386.85	1232.88
387.06	1216.49
387.27	1191.92
387.47	1208.30
387.68	1218.54
387.89	1277.93
388.10	1253.36
388.31	1212.40
388.51	1206.25
388.72	1161.20
388.93	1204.21
389.14	1163.25
389.34	1279.98
389.55	1198.06
389.76	1228.78
389.97	1261.55
390.18	1273.84
390.38	1241.07
390.59	1234.93
390.80	1212.40
391.01	1282.03
391.21	1257.45
391.42	1247.21
391.63	1198.06
391.84	1234.93
392.04	1204.21
392.25	1189.87
392.46	1253.36
392.67	1212.40
392.87	1230.83
393.08	1167.34
393.29	1286.12
393.50	1282.03
393.70	1243.12
393.91	1239.02
394.12	1196.01
394.33	1282.03
394.53	1214.45
394.74	1218.54
394.95	1314.80
395.16	1183.73
395.36	1216.49
395.57	1220.59
395.78	1243.12
395.99	1269.74
396.19	1286.12
396.40	1222.64
396.61	1259.50
396.81	1212.40
397.02	1279.98
397.23	1318.89
397.44	1275.88
397.64	1304.56
397.85	1146.86
398.06	1249.26
398.27	1226.73
398.47	1196.01
398.68	1220.59
398.89	1306.60
399.09	1236.97
399.30	1253.36
399.51	1216.49
399.72	1243.12
399.92	1255.40
400.13	1245.16
400.34	1144.81
400.54	1239.02
400.75	1292.27
400.96	1275.88
401.17	1241.07
401.37	1269.74
401.58	1206.25
401.79	1181.68
401.99	1226.73
402.20	1312.75
402.41	1210.35
402.61	1189.87
402.82	1200.11
403.03	1251.31
403.24	1234.93
403.44	1269.74
403.65	1177.58
403.86	1177.58
404.06	1335.28
404.27	1208.30
404.48	1214.45
404.68	1247.21
404.89	1222.64
405.10	1298.41
405.30	1206.25
405.51	1241.07
405.72	1224.69
405.92	1224.69
406.13	1167.34
406.34	1284.08
406.54	1257.45
406.75	1269.74
406.96	1222.64
407.16	1234.93
407.37	1214.45
407.58	1236.97
407.78	1232.88
407.99	1196.01
408.20	1265.64
408.40	1273.84
408.61	1120.24
408.82	1218.54
409.02	1245.16
409.23	1224.69
409.44	1265.64
409.64	1206.25
409.85	1265.64
410.06	1196.01
410.26	1259.50
410.47	1224.69
410.68	1275.88
410.88	1243.12
411.09	1245.16
411.30	1241.07
411.50	1208.30
411.71	1202.16
411.91	1230.83
412.12	1263.60
412.33	1312.75
412.53	1204.21
412.74	1261.55
412.95	1282.03
413.15	1187.82
413.36	1175.53
413.57	1261.55
413.77	1310.70
413.98	1183.73
414.18	1169.39
414.39	1253.36
414.60	1200.11
414.80	1230.83
415.01	1200.11
415.22	1251.31
415.42	1277.93
415.63	1261.55
415.83	1263.60
416.04	1153.01
416.25	1316.84
416.45	1196.01
416.66	1251.31
416.86	1222.64
417.07	1208.30
417.28	1220.59
417.48	1210.35
417.69	1179.63
417.89	1193.97
418.10	1216.49
418.31	1218.54
418.51	1157.10
418.72	1296.36
418.92	1245.16
419.13	1257.45
419.34	1320.94
419.54	1226.73
419.75	1181.68
419.95	1277.93
420.16	1222.64
420.37	1236.97
420.57	1191.92
420.78	1198.06
420.98	1286.12
421.19	1202.16
421.40	1177.58
421.60	1271.79
421.81	1243.12
422.01	1234.93
422.22	1218.54
422.42	1210.35
422.63	1267.69
422.84	1273.84
423.04	1275.88
423.25	1234.93
423.45	1130.48
423.66	1232.88
423.86	1185.77
424.07	1210.35
424.28	1228.78
424.48	1202.16
424.69	1214.45
424.89	1243.12
425.10	1265.64
425.30	1249.26
425.51	1189.87
425.72	1236.97
425.92	1224.69
426.13	1218.54
426.33	1251.31
426.54	1220.59
426.74	1236.97
426.95	1312.75
427.15	1130.48
427.36	1282.03
427.56	1243.12
427.77	1208.30
427.98	1181.68
428.18	1249.26
428.39	1232.88
428.59	1273.84
428.80	1163.25
429.00	1198.06
429.21	1286.12
429.41	1193.97
429.62	1200.11
429.82	1286.12
430.03	1198.06
430.23	1189.87
430.44	1144.81
430.65	1220.59
430.85	1271.79
431.06	1226.73
431.26	1257.45
431.47	1247.21
431.67	1239.02
431.88	1181.68
432.08	1259.50
432.29	1228.78
432.49	1177.58
432.70	1253.36
432.90	1212.40
433.11	1249.26
433.31	1259.50
433.52	1198.06
433.72	1286.12
433.93	1218.54
434.13	1212.40
434.34	1216.49
434.54	1204.21
434.75	1232.88
434.95	1185.77
435.16	1255.40
435.36	1234.93
435.57	1230.83
435.77	1206.25
435.98	1339.37
436.18	1269.74
436.39	1251.31
436.59	1198.06
436.80	1232.88
437.00	1136.62
437.21	1239.02
437.41	1308.65
437.62	1234.93
437.82	1300.46
438.03	1218.54
438.23	1216.49
438.44	1228.78
438.64	1181.68
438.85	1249.26
439.05	1257.45
439.25	1288.17
439.46	1300.46
439.66	1236.97
439.87	1255.40
440.07	1228.78
440.28	1185.77
440.48	1189.87
440.69	1228.78
440.89	1206.25
441.10	1253.36
441.30	1241.07
441.51	1243.12
441.71	1236.97
441.92	1282.03
442.12	1140.72
442.32	1230.83
442.53	1193.97
442.73	1222.64
442.94	1239.02
443.14	1232.88
443.35	1202.16
443.55	1284.08
443.76	1202.16
443.96	1218.54
444.16	1282.03
444.37	1208.30
444.57	1265.64
444.78	1269.74
444.98	1245.16
445.19	1241.07
445.39	1241.07
445.60	1212.40
445.80	1224.69
446.00	1320.94
446.21	1314.80
446.41	1214.45
446.62	1210.35
446.82	1202.16
447.03	1234.93
447.23	1247.21
447.43	1175.53
447.64	1169.39
447.84	1212.40
448.05	1230.83
448.25	1196.01
448.45	1165.29
448.66	1239.02
448.86	1269.74
449.07	1236.97
449.27	1208.30
449.48	1177.58
449.68	1181.68
449.88	1216.49
450.09	1263.60
450.29	1271.79
450.50	1228.78
450.70	1236.97
450.90	1191.92
451.11	1198.06
451.31	1290.22
451.52	1216.49
451.72	1243.12
451.92	1314.80
452.13	1146.86
452.33	1189.87
452.54	1257.45
452.74	1224.69
452.94	1224.69
453.15	1204.21
453.35	1257.45
453.55	1208.30
453.76	1144.81
453.96	1269.74
454.17	1232.88
454.37	1275.88
454.57	1198.06
454.78	1171.44
454.98	1198.06
455.19	1239.02
455.39	1138.67
455.59	1220.59
455.80	1175.53
456.00	1216.49
456.20	1261.55
456.41	1249.26
456.61	1206.25
456.81	1257.45
457.02	1234.93
457.22	1220.59
457.43	1220.59
457.63	1257.45
457.83	1153.01
458.04	1230.83
458.24	1198.06
458.44	1226.73
458.65	1234.93
458.85	1206.25
459.05	1191.92
459.26	1210.35
459.46	1298.41
459.66	1206.25
459.87	1196.01
460.07	1183.73
460.27	1251.31
460.48	1249.26
460.68	1306.60
460.88	1271.79
461.09	1288.17
461.29	1218.54
461.49	1304.56
461.70	1183.73
461.90	1222.64
462.10	1218.54
462.31	1222.64
462.51	1273.84
462.71	1282.03
462.92	1189.87
463.12	1159.15
463.32	1265.64
463.53	1193.97
463.73	1249.26
463.93	1232.88
464.14	1216.49
464.34	1251.31
464.54	1249.26
464.75	1204.21
464.95	1224.69
465.15	1175.53
465.36	1269.74
465.56	1122.29
465.76	1228.78
465.96	1196.01
466.17	1212.40
466.37	1179.63
466.57	1318.89
466.78	1267.69
466.98	1257.45
467.18	1212.40
467.39	1198.06
467.59	1165.29
467.79	1179.63
467.99	1251.31
468.20	1220.59
468.40	1216.49
468.60	1249.26
468.81	1265.64
469.01	1202.16
469.21	1204.21
469.41	1243.12
469.62	1292.27
469.82	1181.68
470.02	1171.44
470.23	1306.60
470.43	1247.21
470.63	1202.16
470.83	1267.69
471.04	1191.92
471.24	1124.33
471.44	1232.88
471.65	1239.02
471.85	1263.60
472.05	1177.58
472.25	1208.30
472.46	1249.26
472.66	1181.68
472.86	1206.25
473.06	1243.12
473.27	1212.40
473.47	1267.69
473.67	1208.30
473.87	1249.26
474.08	1224.69
474.28	1286.12
474.48	1275.88
474.68	1257.45
474.89	1200.11
475.09	1236.97
475.29	1286.12
475.49	1222.64
475.70	1218.54
475.90	1265.64
476.10	1202.16
476.30	1239.02
476.51	1249.26
476.71	1167.34
476.91	1253.36
477.11	1183.73
477.32	1183.73
477.52	1253.36
477.72	1224.69
477.92	1249.26
478.12	1234.93
478.33	1228.78
478.53	1247.21
478.73	1243.12
478.93	1277.93
479.14	1196.01
479.34	1198.06
479.54	1245.16
479.74	1210.35
479.94	1216.49
480.15	1241.07
480.35	1277.93
480.55	1230.83
480.75	1167.34
480.96	1259.50
481.16	1275.88
481.36	1259.50
481.56	1200.11
481.76	1202.16
481.97	1296.36
482.17	1241.07
482.37	1167.34
482.57	1261.55
482.77	1271.79
482.98	1236.97
483.18	1257.45
483.38	1318.89
483.58	1171.44
483.78	1236.97
483.98	1204.21
484.19	1269.74
484.39	1357.80
484.59	1232.88
484.79	1216.49
484.99	1228.78
485.20	1236.97
485.40	1253.36
485.60	1255.40
485.80	1275.88
486.00	1228.78
486.20	1220.59
486.41	1255.40
486.61	1263.60
486.81	1267.69
487.01	1202.16
487.21	1304.56
487.42	1220.59
487.62	1236.97
487.82	1247.21
488.02	1247.21
488.22	1214.45
488.42	1275.88
488.62	1206.25
488.83	1265.64
489.03	1165.29
489.23	1208.30
489.43	1196.01
489.63	1226.73
489.83	1286.12
490.04	1236.97
490.24	1200.11
490.44	1243.12
490.64	1200.11
490.84	1169.39
491.04	1181.68
491.24	1212.40
491.45	1247.21
491.65	1196.01
491.85	1226.73
492.05	1228.78
492.25	1191.92
492.45	1210.35
492.65	1171.44
492.86	1171.44
493.06	1214.45
493.26	1167.34
493.46	1251.31
493.66	1189.87
493.86	1243.12
494.06	1243.12
494.26	1239.02
494.47	1228.78
494.67	1226.73
494.87	1183.73
495.07	1230.83
495.27	1224.69
495.47	1204.21
495.67	1271.79
495.87	1234.93
496.07	1253.36
496.28	1214.45
496.48	1155.05
496.68	1220.59
496.88	1228.78
497.08	1255.40
497.28	1193.97
497.48	1288.17
497.68	1279.98
497.88	1204.21
498.08	1189.87
498.29	1234.93
498.49	1216.49
498.69	1214.45
498.89	1255.40
499.09	1169.39
499.29	1193.97
499.49	1185.77
499.69	1230.83
499.89	1220.59
500.09	1220.59
500.29	1316.84
500.50	1300.46
500.70	1216.49
500.90	1243.12
501.10	1239.02
501.30	1175.53
501.50	1279.98
501.70	1216.49
501.90	1245.16
502.10	1189.87
502.30	1196.01
502.50	1288.17
502.70	1290.22
502.90	1228.78
503.10	1202.16
503.31	1189.87
503.51	1259.50
503.71	1261.55
503.91	1247.21
504.11	1202.16
504.31	1255.40
504.51	1191.92
504.71	1263.60
504.91	1263.60
505.11	1155.05
505.31	1222.64
505.51	1273.84
505.71	1177.58
505.91	1265.64
506.11	1236.97
506.31	1130.48
506.51	1263.60
506.71	1232.88
506.91	1306.60
507.11	1249.26
507.31	1269.74
507.51	1318.89
507.72	1298.41
507.92	1275.88
508.12	1212.40
508.32	1171.44
508.52	1247.21
508.72	1189.87
508.92	1208.30
509.12	1282.03
509.32	1253.36
509.52	1204.21
509.72	1208.30
509.92	1214.45
510.12	1224.69
510.32	1290.22
510.52	1261.55
510.72	1122.29
510.92	1318.89
511.12	1218.54
511.32	1263.60
511.52	1232.88
511.72	1245.16
511.92	1210.35
512.12	1286.12
512.32	1181.68
512.52	1224.69
512.72	1208.30
512.92	1279.98
513.12	1185.77
513.32	1146.86
513.52	1228.78
513.72	1173.49
513.92	1224.69
514.12	1245.16
514.32	1210.35
514.52	1279.98
514.72	1171.44
514.92	1263.60
515.12	1273.84
515.32	1171.44
515.52	1230.83
515.72	1269.74
515.92	1239.02
516.12	1179.63
516.32	1241.07
516.52	1259.50
516.72	1210.35
516.92	1265.64
517.12	1206.25
517.32	1292.27
517.51	1210.35
517.71	1259.50
517.91	1185.77
518.11	1175.53
518.31	1196.01
518.51	1257.45
518.71	1208.30
518.91	1210.35
519.11	1214.45
519.31	1267.69
519.51	1325.04
519.71	1310.70
519.91	1228.78
520.11	1193.97
520.31	1204.21
520.51	1122.29
520.71	1257.45
520.91	1191.92
521.11	1208.30
521.31	1210.35
521.51	1286.12
521.70	1220.59
521.90	1187.82
522.10	1181.68
522.30	1218.54
522.50	1200.11
522.70	1269.74
522.90	1263.60
523.10	1214.45
523.30	1263.60
523.50	1241.07
523.70	1259.50
523.90	1245.16
524.10	1212.40
524.30	1228.78
524.49	1277.93
524.69	1196.01
524.89	1269.74
525.09	1224.69
525.29	1267.69
525.49	1163.25
525.69	1300.46
525.89	1284.08
526.09	1239.02
526.29	1247.21
526.49	1226.73
526.68	1220.59
526.88	1251.31
527.08	1198.06
527.28	1341.42
527.48	1247.21
527.68	1214.45
527.88	1163.25
528.08	1206.25
528.28	1218.54
528.48	1173.49
528.67	1306.60
528.87	1261.55
529.07	1245.16
529.27	1294.32
529.47	1277.93
529.67	1204.21
529.87	1255.40
530.07	1239.02
530.26	1214.45
530.46	1214.45
530.66	1210.35
530.86	1208.30
531.06	1310.70
531.26	1241.07
531.46	1304.56
531.66	1282.03
531.85	1279.98
532.05	1312.75
532.25	1277.93
532.45	1259.50
532.65	1230.83
532.85	1243.12
533.05	1273.84
533.25	1245.16
533.44	1269.74
533.64	1196.01
533.84	1208.30
534.04	1212.40
534.24	1214.45
534.44	1245.16
534.63	1159.15
534.83	1222.64
535.03	1327.08
535.23	1277.93
535.43	1247.21
535.63	1204.21
535.83	1173.49
536.02	1230.83
536.22	1255.40
536.42	1249.26
536.62	1267.69
536.82	1333.23
537.02	1251.31
537.21	1300.46
537.41	1198.06
537.61	1245.16
537.81	1218.54
538.01	1228.78
538.21	1374.19
538.40	1236.97
538.60	1224.69
538.80	1261.55
539.00	1325.04
539.20	1271.79
539.39	1267.69
539.59	1325.04
539.79	1343.47
539.99	1232.88
540.19	1271.79
540.39	1337.32
540.58	1345.52
540.78	1392.62
540.98	1384.43
541.18	1392.62
541.38	1409.00
541.57	1409.00
541.77	1327.08
541.97	1398.76
542.17	1462.25
542.37	1429.48
542.56	1462.25
542.76	1388.52
542.96	1392.62
543.16	1460.20
543.35	1433.58
543.55	1400.81
543.75	1396.71
543.95	1511.40
544.15	1413.10
544.34	1439.72
544.54	1386.47
544.74	1482.73
544.94	1511.40
545.14	1392.62
545.33	1482.73
545.53	1417.19
545.73	1470.44
545.93	1337.32
546.12	1294.32
546.32	1382.38
546.52	1413.10
546.72	1351.66
546.91	1241.07
547.11	1302.51
547.31	1347.56
547.51	1359.85
547.70	1271.79
547.90	1347.56
548.10	1366.00
548.30	1273.84
548.50	1396.71
548.69	1316.84
548.89	1298.41
549.09	1275.88
549.29	1359.85
549.48	1286.12
549.68	1273.84
549.88	1304.56
550.07	1366.00
550.27	1243.12
550.47	1288.17
550.67	1292.27
550.86	1322.99
551.06	1163.25
551.26	1288.17
551.46	1279.98
551.65	1296.36
551.85	1361.90
552.05	1234.93
552.25	1300.46
552.44	1241.07
552.64	1253.36
552.84	1345.52
553.03	1286.12
553.23	1273.84
553.43	1349.61
553.63	1288.17
553.82	1366.00
554.02	1259.50
554.22	1236.97
554.41	1222.64
554.61	1284.08
554.81	1335.28
555.01	1306.60
555.20	1204.21
555.40	1275.88
555.60	1267.69
555.79	1206.25
555.99	1279.98
556.19	1259.50
556.38	1224.69
556.58	1241.07
556.78	1279.98
556.98	1286.12
557.17	1269.74
557.37	1263.60
557.57	1232.88
557.76	1239.02
557.96	1200.11
558.16	1282.03
558.35	1218.54
558.55	1292.27
558.75	1249.26
558.94	1230.83
559.14	1288.17
559.34	1339.37
559.53	1265.64
559.73	1275.88
559.93	1320.94
560.12	1294.32
560.32	1251.31
560.52	1325.04
560.71	1269.74
560.91	1247.21
561.11	1241.07
561.30	1284.08
561.50	1243.12
561.70	1286.12
561.89	1251.31
562.09	1234.93
562.29	1273.84
562.48	1286.12
562.68	1185.77
562.88	1255.40
563.07	1183.73
563.27	1273.84
563.47	1212.40
563.66	1296.36
563.86	1286.12
564.06	1212.40
564.25	1214.45
564.45	1234.93
564.64	1243.12
564.84	1216.49
565.04	1277.93
565.23	1296.36
565.43	1210.35
565.63	1255.40
565.82	1247.21
566.02	1241.07
566.22	1253.36
566.41	1169.39
566.61	1279.98
566.80	1304.56
567.00	1257.45
567.20	1261.55
567.39	1271.79
567.59	1300.46
567.78	1179.63
567.98	1247.21
568.18	1247.21
568.37	1284.08
568.57	1236.97
568.77	1282.03
568.96	1251.31
569.16	1263.60
569.35	1304.56
569.55	1216.49
569.75	1341.42
569.94	1251.31
570.14	1316.84
570.33	1302.51
570.53	1198.06
570.73	1339.37
570.92	1216.49
571.12	1292.27
571.31	1292.27
571.51	1267.69
571.71	1236.97
571.90	1322.99
572.10	1216.49
572.29	1247.21
572.49	1286.12
572.68	1245.16
572.88	1220.59
573.08	1261.55
573.27	1275.88
573.47	1171.44
573.66	1234.93
573.86	1277.93
574.05	1253.36
574.25	1167.34
574.45	1259.50
574.64	1335.28
574.84	1218.54
575.03	1263.60
575.23	1255.40
575.42	1284.08
575.62	1322.99
575.82	1277.93
576.01	1198.06
576.21	1245.16
576.40	1181.68
576.60	1222.64
576.79	1245.16
576.99	1282.03
577.18	1271.79
577.38	1269.74
577.57	1181.68
577.77	1286.12
577.97	1267.69
578.16	1284.08
578.36	1314.80
578.55	1304.56
578.75	1306.60
578.94	1316.84
579.14	1234.93
579.33	1331.18
579.53	1327.08
579.72	1335.28
579.92	1314.80
580.11	1296.36
580.31	1310.70
580.50	1341.42
580.70	1310.70
580.90	1345.52
581.09	1214.45
581.29	1282.03
581.48	1306.60
581.68	1341.42
581.87	1282.03
582.07	1239.02
582.26	1263.60
582.46	1322.99
582.65	1351.66
582.85	1337.32
583.04	1329.13
583.24	1368.04
583.43	1318.89
583.63	1263.60
583.82	1312.75
584.02	1331.18
584.21	1312.75
584.41	1322.99
584.60	1351.66
584.80	1320.94
584.99	1269.74
585.19	1251.31
585.38	1308.65
585.58	1345.52
585.77	1327.08
585.97	1269.74
586.16	1322.99
586.35	1368.04
586.55	1322.99
586.74	1331.18
586.94	1318.89
587.13	1386.47
587.33	1271.79
587.52	1363.95
587.72	1310.70
587.91	1261.55
588.11	1320.94
588.30	1331.18
588.50	1294.32
588.69	1220.59
588.89	1271.79
589.08	1282.03
589.28	1322.99
589.47	1247.21
589.66	1249.26
589.86	1314.80
590.05	1263.60
590.25	1318.89
590.44	1302.51
590.64	1257.45
590.83	1259.50
591.03	1259.50
591.22	1327.08
591.41	1275.88
591.61	1277.93
591.80	1310.70
592.00	1310.70
592.19	1286.12
592.39	1286.12
592.58	1290.22
592.78	1339.37
592.97	1333.23
593.16	1234.93
593.36	1236.97
593.55	1337.32
593.75	1329.13
593.94	1290.22
594.14	1292.27
594.33	1282.03
594.52	1239.02
594.72	1306.60
594.91	1247.21
595.11	1290.22
595.30	1273.84
595.49	1261.55
595.69	1275.88
595.88	1257.45
596.08	1257.45
596.27	1318.89
596.47	1310.70
596.66	1249.26
596.85	1228.78
597.05	1241.07
597.24	1257.45
597.44	1273.84
597.63	1269.74
597.82	1282.03
598.02	1296.36
598.21	1306.60
598.40	1282.03
598.60	1318.89
598.79	1331.18
598.99	1306.60
599.18	1282.03
599.37	1263.60
599.57	1370.09
599.76	1312.75
599.96	1247.21
600.15	1325.04
600.34	1273.84
600.54	1316.84
600.73	1292.27
600.92	1298.41
601.12	1306.60
601.31	1177.58
601.51	1259.50
601.70	1310.70
601.89	1333.23
602.09	1265.64
602.28	1286.12
602.47	1243.12
602.67	1212.40
602.86	1347.56
603.05	1273.84
603.25	1325.04
603.44	1263.60
603.63	1265.64
603.83	1277.93
604.02	1298.41
604.22	1216.49
604.41	1349.61
604.60	1230.83
604.80	1310.70
604.99	1269.74
605.18	1177.58
605.38	1255.40
605.57	1296.36
605.76	1392.62
605.96	1259.50
606.15	1273.84
606.34	1253.36
606.54	1239.02
606.73	1292.27
606.92	1228.78
607.12	1239.02
607.31	1294.32
607.50	1308.65
607.70	1257.45
607.89	1271.79
608.08	1224.69
608.28	1198.06
608.47	1292.27
608.66	1249.26
608.85	1374.19
609.05	1343.47
609.24	1372.14
609.43	1355.76
609.63	1322.99
609.82	1380.33
610.01	1578.98
610.21	1476.59
610.40	1495.02
610.59	1492.97
610.79	1464.30
610.98	1449.96
611.17	1402.86
611.36	1474.54
611.56	1400.81
611.75	1486.83
611.94	1406.95
612.14	1404.91
612.33	1419.24
612.52	1374.19
612.71	1392.62
612.91	1351.66
613.10	1345.52
613.29	1384.43
613.49	1345.52
613.68	1361.90
613.87	1314.80
614.06	1331.18
614.26	1345.52
614.45	1327.08
614.64	1376.24
614.83	1357.80
615.03	1304.56
615.22	1374.19
615.41	1318.89
615.60	1253.36
615.80	1302.51
615.99	1359.85
616.18	1300.46
616.38	1230.83
616.57	1284.08
616.76	1267.69
616.95	1265.64
617.15	1261.55
617.34	1275.88
617.53	1243.12
617.72	1308.65
617.92	1277.93
618.11	1177.58
618.30	1241.07
618.49	1275.88
618.68	1169.39
618.88	1216.49
619.07	1269.74
619.26	1296.36
619.45	1300.46
619.65	1267.69
619.84	1292.27
620.03	1294.32
620.22	1247.21
620.42	1273.84
620.61	1245.16
620.80	1290.22
620.99	1294.32
621.18	1228.78
621.38	1308.65
621.57	1286.12
621.76	1275.88
621.95	1320.94
622.15	1226.73
622.34	1255.40
622.53	1208.30
622.72	1277.93
622.91	1224.69
623.11	1318.89
623.30	1263.60
623.49	1236.97
623.68	1249.26
623.87	1261.55
624.07	1253.36
624.26	1325.04
624.45	1296.36
624.64	1222.64
624.83	1247.21
625.03	1269.74
625.22	1318.89
625.41	1261.55
625.60	1251.31
625.79	1327.08
625.98	1191.92
626.18	1236.97
626.37	1210.35
626.56	1236.97
626.75	1234.93
626.94	1261.55
627.14	1198.06
627.33	1286.12
627.52	1202.16
627.71	1277.93
627.90	1300.46
628.09	1261.55
628.29	1247.21
628.48	1263.60
628.67	1290.22
628.86	1253.36
629.05	1214.45
629.24	1261.55
629.43	1277.93
629.63	1253.36
629.82	1245.16
630.01	1236.97
630.20	1282.03
630.39	1284.08
630.58	1224.69
630.78	1241.07
630.97	1261.55
631.16	1232.88
631.35	1191.92
631.54	1251.31
631.73	1269.74
631.92	1255.40
632.11	1261.55
632.31	1269.74
632.50	1239.02
632.69	1247.21
632.88	1222.64
633.07	1257.45
633.26	1243.12
633.45	1288.17
633.65	1163.25
633.84	1226.73
634.03	1275.88
634.22	1210.35
634.41	1279.98
634.60	1234.93
634.79	1183.73
634.98	1284.08
635.17	1163.25
635.37	1210.35
635.56	1245.16
635.75	1218.54
635.94	1243.12
636.13	1271.79
636.32	1214.45
636.51	1196.01
636.70	1279.98
636.89	1294.32
637.08	1257.45
637.28	1120.24
637.47	1261.55
637.66	1243.12
637.85	1187.82
638.04	1247.21
638.23	1230.83
638.42	1208.30
638.61	1267.69
638.80	1206.25
638.99	1185.77
639.18	1296.36
639.38	1261.55
639.57	1212.40
639.76	1214.45
639.95	1267.69
640.14	1329.13
640.33	1271.79
640.52	1183.73
640.71	1163.25
640.90	1206.25
641.09	1251.31
641.28	1239.02
641.47	1292.27
641.66	1218.54
641.85	1216.49
642.04	1191.92
642.24	1218.54
642.43	1255.40
642.62	1630.18
642.81	1191.92
643.00	1146.86
643.19	1245.16
643.38	1191.92
643.57	1232.88
643.76	1208.30
643.95	1241.07
644.14	1277.93
644.33	1243.12
644.52	1300.46
644.71	1253.36
644.90	1236.97
645.09	1253.36
645.28	1206.25
645.47	1185.77
645.66	1292.27
645.85	1234.93
646.04	1275.88
646.23	1298.41
646.42	1286.12
646.61	1196.01
646.80	1269.74
646.99	1189.87
647.18	1275.88
647.37	1222.64
647.56	1234.93
647.75	1222.64
647.95	1259.50
648.14	1150.96
648.33	1234.93
648.52	1198.06
648.71	1206.25
648.90	1169.39
649.09	1255.40
649.28	1255.40
649.47	1228.78
649.66	1169.39
649.85	1161.20
650.04	1228.78
650.23	1243.12
650.42	1214.45
650.61	1204.21
650.79	1220.59
650.98	1241.07
651.17	1282.03
651.36	1253.36
651.55	1185.77
651.74	1204.21
651.93	1259.50
652.12	1255.40
652.31	1157.10
652.50	1263.60
652.69	1216.49
652.88	1261.55
653.07	1193.97
653.26	1224.69
653.45	1218.54
653.64	1206.25
653.83	1218.54
654.02	1214.45
654.21	1267.69
654.40	1187.82
654.59	1187.82
654.78	1169.39
654.97	1288.17
655.16	1212.40
655.35	1245.16
655.54	1249.26
655.73	1220.59
655.92	1267.69
656.11	1279.98
656.30	1224.69
656.48	1220.59
656.67	1226.73
656.86	1251.31
657.05	1257.45
657.24	1261.55
657.43	1279.98
657.62	1239.02
657.81	1206.25
658.00	1232.88
658.19	1269.74
658.38	1198.06
658.57	1200.11
658.76	1302.51
658.95	1232.88
659.13	1191.92
659.32	1241.07
659.51	1239.02
659.70	1230.83
659.89	1200.11
660.08	1202.16
660.27	1222.64
660.46	1273.84
660.65	1216.49
660.84	1208.30
661.03	1198.06
661.22	1245.16
661.40	1282.03
661.59	1175.53
661.78	1361.90
661.97	1200.11
662.16	1146.86
662.35	1247.21
662.54	1245.16
662.73	1187.82
662.92	1232.88
663.11	1239.02
663.29	1202.16
663.48	1171.44
663.67	1241.07
663.86	1263.60
664.05	1193.97
664.24	1187.82
664.43	1308.65
664.62	1226.73
664.80	1282.03
664.99	1204.21
665.18	1216.49
665.37	1251.31
665.56	1261.55
665.75	1269.74
665.94	1212.40
666.13	1277.93
666.31	1224.69
666.50	1177.58
666.69	1241.07
666.88	1290.22
667.07	1228.78
667.26	1234.93
667.45	1267.69
667.63	1271.79
667.82	1216.49
668.01	1263.60
668.20	1232.88
668.39	1236.97
668.58	1189.87
668.76	1167.34
668.95	1271.79
669.14	1232.88
669.33	1200.11
669.52	1239.02
669.71	1196.01
669.90	1251.31
670.08	1206.25
670.27	1265.64
670.46	1191.92
670.65	1253.36
670.84	1245.16
671.03	1214.45
671.21	1202.16
671.40	1269.74
671.59	1243.12
671.78	1294.32
671.97	1210.35
672.15	1210.35
672.34	1232.88
672.53	1222.64
672.72	1279.98
672.91	1224.69
673.09	1245.16
673.28	1204.21
673.47	1275.88
673.66	1296.36
673.85	1269.74
674.04	1243.12
674.22	1236.97
674.41	1212.40
674.60	1245.16
674.79	1243.12
674.98	1193.97
675.16	1275.88
675.35	1232.88
675.54	1216.49
675.73	1267.69
675.91	1292.27
676.10	1267.69
676.29	1265.64
676.48	1243.12
676.67	1241.07
676.85	1200.11
677.04	1228.78
677.23	1200.11
677.42	1167.34
677.60	1226.73
677.79	1155.05
677.98	1312.75
678.17	1263.60
678.36	1220.59
678.54	1277.93
678.73	1177.58
678.92	1267.69
679.11	1206.25
679.29	1179.63
679.48	1234.93
679.67	1191.92
679.86	1282.03
680.04	1245.16
680.23	1196.01
680.42	1259.50
680.61	1247.21
680.79	1325.04
680.98	1277.93
681.17	1241.07
681.36	1177.58
681.54	1320.94
681.73	1279.98
681.92	1269.74
682.11	1198.06
682.29	1273.84
682.48	1239.02
682.67	1282.03
682.85	1286.12
683.04	1236.97
683.23	1320.94
683.42	1234.93
683.60	1245.16
683.79	1187.82
683.98	1286.12
684.17	1267.69
684.35	1234.93
684.54	1292.27
684.73	1257.45
684.91	1247.21
685.10	1218.54
685.29	1288.17
685.48	1265.64
685.66	1239.02
685.85	1288.17
686.04	1271.79
686.22	1251.31
686.41	1234.93
686.60	1259.50
686.78	1294.32
686.97	1128.43
687.16	1316.84
687.35	1298.41
687.53	1275.88
687.72	1263.60
687.91	1228.78
688.09	1251.31
688.28	1304.56
688.47	1316.84
688.65	1279.98
688.84	1292.27
689.03	1261.55
689.21	1263.60
689.40	1271.79
689.59	1165.29
689.77	1263.60
689.96	1316.84
690.15	1253.36
690.33	1218.54
690.52	1308.65
690.71	1318.89
690.89	1249.26
691.08	1261.55
691.27	1214.45
691.45	1241.07
691.64	1271.79
691.83	1204.21
692.01	1318.89
692.20	1267.69
692.39	1329.13
692.57	1247.21
692.76	1247.21
692.95	1310.70
693.13	1284.08
693.32	1210.35
693.50	1222.64
693.69	1318.89
693.88	1296.36
694.06	1241.07
694.25	1271.79
694.44	1230.83
694.62	1247.21
694.81	1300.46
695.00	1275.88
695.18	1325.04
695.37	1349.61
695.55	1341.42
695.74	1275.88
695.93	1284.08
696.11	1361.90
696.30	1314.80
696.49	1290.22
696.67	1249.26
696.86	1333.23
697.04	1208.30
697.23	1306.60
697.42	1312.75
697.60	1286.12
697.79	1333.23
697.97	1251.31
698.16	1218.54
698.35	1234.93
698.53	1226.73
698.72	1363.95
698.90	1277.93
699.09	1327.08
699.28	1249.26
699.46	1255.40
699.65	1314.80
699.83	1269.74
700.02	1169.39
700.21	1263.60
700.39	1228.78
700.58	1275.88
700.76	1265.64
700.95	1218.54
701.13	1325.04
701.32	1269.74
701.51	1265.64
701.69	1292.27
701.88	1271.79
702.06	1263.60
702.25	1302.51
702.43	1294.32
702.62	1241.07
702.81	1236.97
702.99	1265.64
703.18	1294.32
703.36	1261.55
703.55	1376.24
703.73	1261.55
703.92	1251.31
704.10	1245.16
704.29	1286.12
704.48	1277.93
704.66	1288.17
704.85	1329.13
705.03	1306.60
705.22	1286.12
705.40	1249.26
705.59	1298.41
705.77	1331.18
705.96	1306.60
706.14	1331.18
706.33	1257.45
706.51	1284.08
706.70	1302.51
706.89	1302.51
707.07	1284.08
707.26	1337.32
707.44	1296.36
707.63	1316.84
707.81	1275.88
708.00	1327.08
708.18	1339.37
708.37	1310.70
708.55	1294.32
708.74	1325.04
708.92	1243.12
709.11	1314.80
709.29	1300.46
709.48	1337.32
709.66	1345.52
709.85	1306.60
710.03	1322.99
710.22	1429.48
710.40	1388.52
710.59	1282.03
710.77	1335.28
710.96	1347.56
711.14	1343.47
711.33	1310.70
711.51	1310.70
711.70	1421.29
711.88	1304.56
712.07	1314.80
712.25	1337.32
712.44	1294.32
712.62	1286.12
712.81	1304.56
712.99	1318.89
713.18	1355.76
713.36	1312.75
713.54	1255.40
713.73	1279.98
713.91	1275.88
714.10	1228.78
714.28	1308.65
714.47	1390.57
714.65	1345.52
714.84	1251.31
715.02	1322.99
715.21	1325.04
715.39	1327.08
715.58	1351.66
715.76	1267.69
715.94	1249.26
716.13	1322.99
716.31	1298.41
716.50	1306.60
716.68	1298.41
716.87	1318.89
717.05	1296.36
717.24	1304.56
717.42	1335.28
717.60	1331.18
717.79	1253.36
717.97	1296.36
718.16	1234.93
718.34	1339.37
718.53	1306.60
718.71	1310.70
718.89	1292.27
719.08	1228.78
719.26	1341.42
719.45	1273.84
719.63	1284.08
719.82	1322.99
720.00	1314.80
720.18	1302.51
720.37	1304.56
720.55	1290.22
720.74	1239.02
720.92	1273.84
721.10	1302.51
721.29	1294.32
721.47	1325.04
721.66	1292.27
721.84	1294.32
722.02	1298.41
722.21	1277.93
722.39	1349.61
722.58	1327.08
722.76	1308.65
722.94	1239.02
723.13	1251.31
723.31	1320.94
723.50	1366.00
723.68	1290.22
723.86	1312.75
724.05	1288.17
724.23	1329.13
724.41	1245.16
724.60	1249.26
724.78	1349.61
724.97	1273.84
725.15	1316.84
725.33	1257.45
725.52	1185.77
725.70	1279.98
725.88	1257.45
726.07	1351.66
726.25	1316.84
726.44	1275.88
726.62	1302.51
726.80	1335.28
726.99	1284.08
727.17	1304.56
727.35	1298.41
727.54	1333.23
727.72	1296.36
727.90	1253.36
728.09	1253.36
728.27	1394.67
728.45	1298.41
728.64	1361.90
728.82	1304.56
729.00	1214.45
729.19	1333.23
729.37	1290.22
729.55	1290.22
729.74	1255.40
729.92	1361.90
730.10	1302.51
730.29	1366.00
730.47	1331.18
730.65	1243.12
730.84	1318.89
731.02	1331.18
731.20	1296.36
731.39	1236.97
731.57	1314.80
731.75	1290.22
731.94	1286.12
732.12	1267.69
732.30	1251.31
732.49	1337.32
732.67	1343.47
732.85	1357.80
733.03	1353.71
733.22	1325.04
733.40	1220.59
733.58	1359.85
733.77	1239.02
733.95	1341.42
734.13	1271.79
734.32	1316.84
734.50	1337.32
734.68	1302.51
734.86	1230.83
735.05	1355.76
735.23	1361.90
735.41	1271.79
735.60	1359.85
735.78	1312.75
735.96	1310.70
736.14	1337.32
736.33	1228.78
736.51	1351.66
736.69	1288.17
736.87	1302.51
737.06	1339.37
737.24	1320.94
737.42	1255.40
737.61	1355.76
737.79	1361.90
737.97	1298.41
738.15	1341.42
738.34	1302.51
738.52	1331.18
738.70	1343.47
738.88	1335.28
739.07	1271.79
739.25	1396.71
739.43	1382.38
739.61	1374.19
739.80	1320.94
739.98	1382.38
740.16	1243.12
740.34	1236.97
740.52	1267.69
740.71	1294.32
740.89	1269.74
741.07	1265.64
741.25	1302.51
741.44	1355.76
741.62	1300.46
741.80	1286.12
741.98	1290.22
742.17	1279.98
742.35	1312.75
742.53	1331.18
742.71	1241.07
742.89	1263.60
743.08	1306.60
743.26	1345.52
743.44	1255.40
743.62	1394.67
743.80	1265.64
743.99	1335.28
744.17	1263.60
744.35	1331.18
744.53	1257.45
744.71	1282.03
744.90	1400.81
745.08	1247.21
745.26	1220.59
745.44	1273.84
745.62	1288.17
745.81	1357.80
745.99	1306.60
746.17	1265.64
746.35	1234.93
746.53	1335.28
746.72	1413.10
746.90	1349.61
747.08	1290.22
747.26	1325.04
747.44	1314.80
747.62	1253.36
747.81	1282.03
747.99	1325.04
748.17	1275.88
748.35	1351.66
748.53	1245.16
748.71	1286.12
748.90	1279.98
749.08	1355.76
749.26	1341.42
749.44	1288.17
749.62	1333.23
749.80	1351.66
749.99	1322.99
750.17	1296.36
750.35	1339.37
750.53	1318.89
750.71	1370.09
750.89	1333.23
751.07	1304.56
751.26	1388.52
751.44	1368.04
751.62	1335.28
751.80	1288.17
751.98	1314.80
752.16	1271.79
752.34	1277.93
752.53	1304.56
752.71	1261.55
752.89	1302.51
753.07	1224.69
753.25	1339.37
753.43	1327.08
753.61	1322.99
753.79	1335.28
753.98	1269.74
754.16	1312.75
754.34	1271.79
754.52	1267.69
754.70	1275.88
754.88	1316.84
755.06	1284.08
755.24	1318.89
755.42	1310.70
755.60	1245.16
755.79	1331.18
755.97	1316.84
756.15	1386.47
756.33	1282.03
756.51	1288.17
756.69	1314.80
756.87	1320.94
757.05	1320.94
757.23	1290.22
757.41	1228.78
757.60	1298.41
757.78	1314.80
757.96	1298.41
758.14	1253.36
758.32	1337.32
758.50	1333.23
758.68	1236.97
758.86	1337.32
759.04	1355.76
759.22	1318.89
759.40	1298.41
759.58	1263.60
759.76	1304.56
759.94	1316.84
760.13	1277.93
760.31	1286.12
760.49	1269.74
760.67	1370.09
760.85	1294.32
761.03	1314.80
761.21	1396.71
761.39	1271.79
761.57	1322.99
761.75	1292.27
761.93	1394.67
762.11	1212.40
762.29	1331.18
762.47	1327.08
762.65	1343.47
762.83	1335.28
763.01	1341.42
763.19	1306.60
763.37	1349.61
763.55	1392.62
763.73	1327.08
763.91	1329.13
764.09	1300.46
764.27	1384.43
764.45	1361.90
764.64	1296.36
764.82	1363.95
765.00	1294.32
765.18	1333.23
765.36	1382.38
765.54	1271.79
765.72	1368.04
765.90	1271.79
766.08	1361.90
766.26	1310.70
766.44	1357.80
766.62	1347.56
766.80	1331.18
766.98	1390.57
767.16	1241.07
767.34	1279.98
767.52	1304.56
767.70	1318.89
767.88	1409.00
768.06	1279.98
768.24	1322.99
768.42	1318.89
768.60	1325.04
768.78	1322.99
768.96	1322.99
769.13	1361.90
769.31	1425.39
769.49	1337.32
769.67	1368.04
769.85	1333.23
770.03	1325.04
770.21	1294.32
770.39	1325.04
770.57	1290.22
770.75	1355.76
770.93	1388.52
771.11	1269.74
771.29	1333.23
771.47	1275.88
771.65	1261.55
771.83	1316.84
772.01	1353.71
772.19	1320.94
772.37	1302.51
772.55	1322.99
772.73	1368.04
772.91	1277.93
773.09	1277.93
773.27	1345.52
773.44	1359.85
773.62	1339.37
773.80	1290.22
773.98	1316.84
774.16	1347.56
774.34	1249.26
774.52	1396.71
774.70	1333.23
774.88	1316.84
775.06	1386.47
775.24	1290.22
775.42	1310.70
775.60	1320.94
775.78	1349.61
775.95	1312.75
776.13	1234.93
776.31	1353.71
776.49	1275.88
776.67	1265.64
776.85	1329.13
777.03	1325.04
777.21	1429.48
777.39	1345.52
777.57	1347.56
777.75	1310.70
777.92	1298.41
778.10	1269.74
778.28	1331.18
778.46	1327.08
778.64	1275.88
778.82	1247.21
779.00	1288.17
779.18	1292.27
779.36	1378.28
779.53	1331.18
779.71	1320.94
779.89	1345.52
780.07	1386.47
780.25	1302.51
780.43	1322.99
780.61	1294.32
780.79	1302.51
780.96	1341.42
781.14	1302.51
781.32	1320.94
781.50	1331.18
781.68	1341.42
781.86	1343.47
782.04	1322.99
782.21	1325.04
782.39	1224.69
782.57	1320.94
782.75	1329.13
782.93	1290.22
783.11	1286.12
783.29	1327.08
783.46	1292.27
783.64	1273.84
783.82	1341.42
784.00	1296.36
784.18	1392.62
784.36	1286.12
784.54	1269.74
784.71	1372.14
784.89	1339.37
785.07	1347.56
785.25	1300.46
785.43	1335.28
785.60	1402.86
785.78	1398.76
785.96	1349.61
786.14	1345.52
786.32	1296.36
786.50	1337.32
786.67	1294.32
786.85	1363.95
787.03	1361.90
787.21	1310.70
787.39	1366.00
787.56	1320.94
787.74	1329.13
787.92	1329.13
788.10	1304.56
788.28	1370.09
788.45	1355.76
788.63	1284.08
788.81	1245.16
788.99	1329.13
789.17	1353.71
789.34	1337.32
789.52	1275.88
789.70	1300.46
789.88	1253.36
790.06	1345.52
790.23	1288.17
790.41	1292.27
790.59	1282.03
790.77	1310.70
790.95	1251.31
791.12	1351.66
791.30	1333.23
791.48	1372.14
791.66	1302.51
791.83	1273.84
792.01	1257.45
792.19	1363.95
792.37	1288.17
792.54	1263.60
792.72	1316.84
792.90	1255.40
793.08	1361.90
793.25	1322.99
793.43	1320.94
793.61	1331.18
793.79	1294.32
793.96	1333.23
794.14	1322.99
794.32	1302.51
794.50	1343.47
794.67	1279.98
794.85	1341.42
795.03	1298.41
795.21	1222.64
795.38	1282.03
795.56	1341.42
795.74	1269.74
795.92	1234.93
796.09	1279.98
796.27	1312.75
796.45	1300.46
796.62	1282.03
796.80	1345.52
796.98	1357.80
797.16	1312.75
797.33	1269.74
797.51	1292.27
797.69	1282.03
797.86	1378.28
798.04	1271.79
798.22	1357.80
798.40	1339.37
798.57	1257.45
798.75	1333.23
798.93	1263.60
799.10	1288.17
799.28	1294.32
799.46	1286.12
799.63	1253.36
799.81	1341.42
799.99	1251.31
800.17	1312.75
800.34	1320.94
800.52	1345.52
800.70	1331.18
800.87	1368.04
801.05	1310.70
801.23	1310.70
801.40	1333.23
801.58	1322.99
801.76	1331.18
801.93	1255.40
802.11	1204.21
802.29	1282.03
802.46	1302.51
802.64	1239.02
802.82	1284.08
802.99	1345.52
803.17	1335.28
803.35	1345.52
803.52	1316.84
803.70	1322.99
803.88	1288.17
804.05	1261.55
804.23	1335.28
804.41	1255.40
804.58	1290.22
804.76	1273.84
804.94	1294.32
805.11	1239.02
805.29	1255.40
805.46	1302.51
805.64	1310.70
805.82	1236.97
805.99	1239.02
806.17	1335.28
806.35	1296.36
806.52	1290.22
806.70	1388.52
806.87	1335.28
807.05	1271.79
807.23	1310.70
807.40	1363.95
807.58	1261.55
807.76	1370.09
807.93	1267.69
808.11	1322.99
808.28	1296.36
808.46	1292.27
808.64	1243.12
808.81	1322.99
808.99	1314.80
809.16	1296.36
809.34	1261.55
809.52	1279.98
809.69	1286.12
809.87	1296.36
810.04	1257.45
810.22	1261.55
810.40	1353.71
810.57	1255.40
810.75	1320.94
810.92	1325.04
811.10	1214.45
811.28	1341.42
811.45	1271.79
811.63	1304.56
811.80	1325.04
811.98	1253.36
812.15	1355.76
812.33	1372.14
812.51	1327.08
812.68	1257.45
812.86	1343.47
813.03	1312.75
813.21	1413.10
813.38	1245.16
813.56	1320.94
813.74	1298.41
813.91	1275.88
814.09	1310.70
814.26	1368.04
814.44	1312.75
814.61	1284.08
814.79	1353.71
814.96	1288.17
815.14	1193.97
815.31	1355.76
815.49	1269.74
815.67	1251.31
815.84	1265.64
816.02	1216.49
816.19	1335.28
816.37	1259.50
816.54	1279.98
816.72	1271.79
816.89	1234.93
817.07	1304.56
817.24	1361.90
817.42	1304.56
817.59	1269.74
817.77	1282.03
817.94	1249.26
818.12	1390.57
818.29	1314.80
818.47	1288.17
818.64	1294.32
818.82	1378.28
818.99	1181.68
819.17	1222.64
819.34	1228.78
819.52	1366.00
819.69	1261.55
819.87	1243.12
820.04	1327.08
820.22	1249.26
820.39	1284.08
820.57	1282.03
820.74	1304.56
820.92	1271.79
821.09	1257.45
821.27	1279.98
821.44	1390.57
821.62	1234.93
821.79	1249.26
821.97	1269.74
822.14	1349.61
822.32	1273.84
822.49	1294.32
822.67	1275.88
822.84	1271.79
823.02	1300.46
823.19	1306.60
823.37	1228.78
823.54	1269.74
823.72	1337.32
823.89	1306.60
824.06	1327.08
824.24	1294.32
824.41	1312.75
824.59	1314.80
824.76	1269.74
824.94	1290.22
825.11	1298.41
825.29	1345.52
825.46	1320.94
825.63	1333.23
825.81	1294.32
825.98	1300.46
826.16	1337.32
826.33	1259.50
826.51	1202.16
826.68	1337.32
826.86	1320.94
827.03	1267.69
827.20	1302.51
827.38	1245.16
827.55	1290.22
827.73	1257.45
827.90	1261.55
828.07	1351.66
828.25	1210.35
828.42	1343.47
828.60	1302.51
828.77	1353.71
828.95	1310.70
829.12	1308.65
829.29	1292.27
829.47	1290.22
829.64	1220.59
829.82	1288.17
829.99	1200.11
830.16	1249.26
830.34	1310.70
830.51	1335.28
830.69	1290.22
830.86	1353.71
831.03	1251.31
831.21	1306.60
831.38	1300.46
831.55	1277.93
831.73	1239.02
831.90	1312.75
832.08	1265.64
832.25	1359.85
832.42	1329.13
832.60	1193.97
832.77	1257.45
832.94	1314.80
833.12	1308.65
833.29	1290.22
833.47	1267.69
833.64	1261.55
833.81	1320.94
833.99	1298.41
834.16	1253.36
834.33	1275.88
834.51	1310.70
834.68	1249.26
834.85	1288.17
835.03	1267.69
835.20	1318.89
835.37	1327.08
835.55	1220.59
835.72	1234.93
835.90	1257.45
836.07	1296.36
836.24	1310.70
836.42	1337.32
836.59	1347.56
836.76	1257.45
836.94	1236.97
837.11	1257.45
837.28	1261.55
837.46	1314.80
837.63	1282.03
837.80	1228.78
837.97	1269.74
838.15	1228.78
838.32	1333.23
838.49	1263.60
838.67	1325.04
838.84	1322.99
839.01	1200.11
839.19	1189.87
839.36	1294.32
839.53	1308.65
839.71	1255.40
839.88	1245.16
840.05	1251.31
840.22	1286.12
840.40	1220.59
840.57	1228.78
840.74	1243.12
840.92	1296.36
841.09	1282.03
841.26	1304.56
841.43	1257.45
841.61	1374.19
841.78	1247.21
841.95	1259.50
842.13	1185.77
842.30	1273.84
842.47	1277.93
842.64	1271.79
842.82	1314.80
842.99	1347.56
843.16	1294.32
843.34	1359.85
843.51	1290.22
843.68	1304.56
843.85	1271.79
844.03	1243.12
844.20	1286.12
844.37	1257.45
844.54	1247.21
844.72	1200.11
844.89	1251.31
845.06	1259.50
845.23	1236.97
845.41	1302.51
845.58	1261.55
845.75	1290.22
845.92	1226.73
846.10	1322.99
846.27	1249.26
846.44	1312.75
846.61	1241.07
846.78	1310.70
846.96	1341.42
847.13	1290.22
847.30	1288.17
847.47	1290.22
847.65	1234.93
847.82	1269.74
847.99	1296.36
848.16	1245.16
848.33	1204.21
848.51	1226.73
848.68	1337.32
848.85	1257.45
849.02	1226.73
849.19	1216.49
849.37	1234.93
849.54	1329.13
849.71	1318.89
849.88	1251.31
850.05	1253.36
850.23	1273.84
850.40	1288.17
850.57	1296.36
850.74	1286.12
850.91	1308.65
851.09	1282.03
851.26	1247.21
851.43	1265.64
851.60	1327.08
851.77	1241.07
851.95	1255.40
852.12	1310.70
852.29	1286.12
852.46	1222.64
852.63	1216.49
852.80	1251.31
852.98	1263.60
853.15	1271.79
853.32	1239.02
853.49	1286.12
853.66	1251.31
853.83	1284.08
854.01	1216.49
854.18	1275.88
854.35	1255.40
854.52	1243.12
854.69	1259.50
854.86	1294.32
855.03	1196.01
855.21	1294.32
855.38	1257.45
855.55	1228.78
855.72	1306.60
855.89	1290.22
856.06	1273.84
856.23	1292.27
856.41	1302.51
856.58	1290.22
856.75	1271.79
856.92	1263.60
857.09	1282.03
857.26	1257.45
857.43	1230.83
857.60	1261.55
857.78	1275.88
857.95	1259.50
858.12	1208.30
858.29	1294.32
858.46	1316.84
858.63	1320.94
858.80	1310.70
858.97	1226.73
859.14	1275.88
859.32	1247.21
859.49	1312.75
859.66	1232.88
859.83	1216.49
860.00	1353.71
860.17	1236.97
860.34	1316.84
860.51	1282.03
860.68	1138.67
860.85	1302.51
861.02	1296.36
861.20	1318.89
861.37	1275.88
861.54	1232.88
861.71	1318.89
861.88	1273.84
862.05	1331.18
862.22	1273.84
862.39	1245.16
862.56	1331.18
862.73	1224.69
862.90	1232.88
863.07	1226.73
863.24	1312.75
863.41	1304.56
863.59	1300.46
863.76	1275.88
863.93	1187.82
864.10	1216.49
864.27	1275.88
864.44	1255.40
864.61	1318.89
864.78	1259.50
864.95	1329.13
865.12	1230.83
865.29	1329.13
865.46	1245.16
865.63	1261.55
865.80	1232.88
865.97	1277.93
866.14	1284.08
866.31	1300.46
866.48	1255.40
866.65	1232.88
866.82	1259.50
866.99	1320.94
867.16	1347.56
867.33	1329.13
867.50	1228.78
867.67	1318.89
867.84	1372.14
868.01	1263.60
868.18	1251.31
868.35	1382.38
868.52	1232.88
868.69	1325.04
868.86	1196.01
869.03	1253.36
869.20	1286.12
869.37	1269.74
869.54	1304.56
869.71	1331.18
869.88	1327.08
870.05	1304.56
870.22	1320.94
870.39	1239.02
870.56	1282.03
870.73	1318.89
870.90	1214.45
871.07	1302.51
871.24	1292.27
871.41	1284.08
871.58	1232.88
871.75	1200.11
871.92	1251.31
872.09	1370.09
872.26	1253.36
872.43	1206.25
872.60	1228.78
872.77	1300.46
872.94	1290.22
873.11	1261.55
873.28	1191.92
873.45	1251.31
873.62	1304.56
873.79	1228.78
873.96	1187.82
874.13	1316.84
874.30	1261.55
874.47	1378.28
874.64	1282.03
874.80	1249.26
874.97	1265.64
875.14	1355.76
875.31	1245.16
875.48	1232.88
875.65	1318.89
875.82	1261.55
875.99	1251.31
876.16	1214.45
876.33	1245.16
876.50	1179.63
876.67	1257.45
876.84	1292.27
877.01	1277.93
877.17	1271.79
877.34	1267.69
877.51	1228.78
877.68	1183.73
877.85	1265.64
878.02	1308.65
878.19	1267.69
878.36	1345.52
878.53	1286.12
878.70	1208.30
878.87	1292.27
879.03	1269.74
879.20	1275.88
879.37	1212.40
879.54	1277.93
879.71	1249.26
879.88	1234.93
880.05	1261.55
880.22	1298.41
880.39	1245.16
880.55	1251.31
880.72	1224.69
880.89	1300.46
881.06	1294.32
881.23	1282.03
881.40	1251.31
881.57	1320.94
881.74	1226.73
881.90	1273.84
882.07	1269.74
882.24	1259.50
882.41	1320.94
882.58	1226.73
882.75	1290.22
882.92	1226.73
883.08	1245.16
883.25	1245.16
883.42	1251.31
883.59	1335.28
883.76	1232.88
883.93	1257.45
884.09	1331.18
884.26	1263.60
884.43	1288.17
884.60	1218.54
884.77	1239.02
884.94	1284.08
885.10	1249.26
885.27	1306.60
885.44	1269.74
885.61	1282.03
885.78	1202.16
885.95	1259.50
886.11	1185.77
886.28	1271.79
886.45	1261.55
886.62	1263.60
886.79	1198.06
886.96	1241.07
887.12	1273.84
887.29	1337.32
887.46	1296.36
887.63	1247.21
887.80	1273.84
887.96	1253.36
888.13	1271.79
888.30	1329.13
888.47	1282.03
888.64	1245.16
888.80	1208.30
888.97	1226.73
889.14	1253.36
889.31	1312.75
889.47	1284.08
889.64	1261.55
889.81	1224.69
889.98	1191.92
890.15	1228.78
890.31	1269.74
890.48	1269.74
890.65	1269.74
890.82	1269.74
890.98	1269.74
891.15	1269.74
>>>>>End Processed Spectral Data<<<<<
