SpectraSuite Data File
++++++++++++++++++++++++++++++++++++
Date: Fri Jan 24 16:52:17 MST 2020
User: Molly
Dark Spectrum Present: Yes
Reference Spectrum Present: Yes
Number of Sampled Component Spectra: 1
Spectrometers: USB4E03280
Integration Time (usec): 32000 (USB4E03280)
Spectra Averaged: 1 (USB4E03280)
Boxcar Smoothing: 0 (USB4E03280)
Correct for Electrical Dark: No (USB4E03280)
Strobe/Lamp Enabled: Yes (USB4E03280)
Correct for Detector Non-linearity: No (USB4E03280)
Correct for Stray Light: No (USB4E03280)
Number of Pixels in Processed Spectrum: 3648
>>>>>Begin Processed Spectral Data<<<<<
177.66	1200.11
177.88	1200.11
178.10	1200.11
178.32	1163.25
178.54	1202.16
178.76	1196.01
178.98	1253.36
179.19	1224.69
179.41	1208.30
179.63	1245.16
179.85	1191.92
180.07	1177.58
180.29	1234.93
180.51	1202.16
180.72	1230.83
180.94	1216.49
181.16	1236.97
181.38	1259.50
181.60	1263.60
181.82	1183.73
182.04	1282.03
182.25	1314.80
182.47	1279.98
182.69	1302.51
182.91	1247.21
183.13	1239.02
183.35	1286.12
183.56	1196.01
183.78	1187.82
184.00	1267.69
184.22	1273.84
184.44	1193.97
184.66	1290.22
184.87	1218.54
185.09	1296.36
185.31	1198.06
185.53	1290.22
185.75	1271.79
185.97	1306.60
186.18	1236.97
186.40	1230.83
186.62	1220.59
186.84	1224.69
187.06	1243.12
187.28	1290.22
187.49	1329.13
187.71	1196.01
187.93	1288.17
188.15	1241.07
188.37	1294.32
188.59	1292.27
188.80	1277.93
189.02	1277.93
189.24	1236.97
189.46	1286.12
189.68	1255.40
189.89	1257.45
190.11	1257.45
190.33	1275.88
190.55	1245.16
190.77	1202.16
190.98	1273.84
191.20	1232.88
191.42	1216.49
191.64	1277.93
191.86	1277.93
192.07	1210.35
192.29	1263.60
192.51	1251.31
192.73	1257.45
192.95	1286.12
193.16	1234.93
193.38	1345.52
193.60	1292.27
193.82	1292.27
194.04	1318.89
194.25	1191.92
194.47	1253.36
194.69	1282.03
194.91	1261.55
195.13	1243.12
195.34	1275.88
195.56	1245.16
195.78	1167.34
196.00	1310.70
196.22	1249.26
196.43	1302.51
196.65	1275.88
196.87	1212.40
197.09	1251.31
197.30	1263.60
197.52	1245.16
197.74	1267.69
197.96	1277.93
198.18	1241.07
198.39	1251.31
198.61	1255.40
198.83	1243.12
199.05	1208.30
199.26	1208.30
199.48	1236.97
199.70	1247.21
199.92	1282.03
200.13	1282.03
200.35	1269.74
200.57	1196.01
200.79	1333.23
201.00	1220.59
201.22	1304.56
201.44	1224.69
201.66	1218.54
201.88	1343.47
202.09	1249.26
202.31	1249.26
202.53	1265.64
202.75	1271.79
202.96	1198.06
203.18	1335.28
203.40	1310.70
203.62	1300.46
203.83	1292.27
204.05	1167.34
204.27	1302.51
204.49	1251.31
204.70	1271.79
204.92	1298.41
205.14	1236.97
205.35	1161.20
205.57	1320.94
205.79	1314.80
206.01	1277.93
206.22	1157.10
206.44	1265.64
206.66	1275.88
206.88	1245.16
207.09	1257.45
207.31	1382.38
207.53	1275.88
207.75	1269.74
207.96	1296.36
208.18	1325.04
208.40	1302.51
208.61	1234.93
208.83	1214.45
209.05	1255.40
209.27	1196.01
209.48	1157.10
209.70	1251.31
209.92	1271.79
210.14	1173.49
210.35	1230.83
210.57	1273.84
210.79	1236.97
211.00	1275.88
211.22	1273.84
211.44	1271.79
211.66	1261.55
211.87	1294.32
212.09	1257.45
212.31	1304.56
212.52	1257.45
212.74	1261.55
212.96	1282.03
213.17	1370.09
213.39	1228.78
213.61	1345.52
213.83	1212.40
214.04	1302.51
214.26	1202.16
214.48	1257.45
214.69	1267.69
214.91	1310.70
215.13	1255.40
215.34	1241.07
215.56	1300.46
215.78	1286.12
216.00	1265.64
216.21	1212.40
216.43	1273.84
216.65	1200.11
216.86	1261.55
217.08	1273.84
217.30	1304.56
217.51	1271.79
217.73	1306.60
217.95	1279.98
218.16	1331.18
218.38	1234.93
218.60	1282.03
218.81	1271.79
219.03	1286.12
219.25	1271.79
219.46	1222.64
219.68	1222.64
219.90	1292.27
220.11	1302.51
220.33	1220.59
220.55	1230.83
220.76	1306.60
220.98	1196.01
221.20	1273.84
221.41	1310.70
221.63	1265.64
221.85	1232.88
222.06	1302.51
222.28	1335.28
222.50	1302.51
222.71	1243.12
222.93	1312.75
223.15	1304.56
223.36	1343.47
223.58	1234.93
223.80	1302.51
224.01	1314.80
224.23	1298.41
224.45	1263.60
224.66	1273.84
224.88	1161.20
225.10	1355.76
225.31	1257.45
225.53	1265.64
225.75	1310.70
225.96	1286.12
226.18	1279.98
226.39	1249.26
226.61	1236.97
226.83	1298.41
227.04	1208.30
227.26	1282.03
227.48	1282.03
227.69	1257.45
227.91	1308.65
228.13	1282.03
228.34	1316.84
228.56	1243.12
228.77	1275.88
228.99	1253.36
229.21	1298.41
229.42	1296.36
229.64	1245.16
229.86	1261.55
230.07	1249.26
230.29	1298.41
230.50	1255.40
230.72	1210.35
230.94	1265.64
231.15	1282.03
231.37	1249.26
231.58	1259.50
231.80	1208.30
232.02	1230.83
232.23	1329.13
232.45	1273.84
232.67	1232.88
232.88	1302.51
233.10	1206.25
233.31	1275.88
233.53	1232.88
233.75	1210.35
233.96	1230.83
234.18	1259.50
234.39	1259.50
234.61	1273.84
234.83	1171.44
235.04	1187.82
235.26	1222.64
235.47	1222.64
235.69	1193.97
235.91	1306.60
236.12	1292.27
236.34	1255.40
236.55	1251.31
236.77	1310.70
236.99	1290.22
237.20	1282.03
237.42	1279.98
237.63	1234.93
237.85	1257.45
238.06	1306.60
238.28	1200.11
238.50	1363.95
238.71	1263.60
238.93	1294.32
239.14	1206.25
239.36	1277.93
239.58	1249.26
239.79	1243.12
240.01	1296.36
240.22	1279.98
240.44	1251.31
240.65	1249.26
240.87	1236.97
241.09	1179.63
241.30	1296.36
241.52	1284.08
241.73	1288.17
241.95	1253.36
242.16	1306.60
242.38	1361.90
242.59	1169.39
242.81	1230.83
243.03	1372.14
243.24	1288.17
243.46	1253.36
243.67	1243.12
243.89	1222.64
244.10	1269.74
244.32	1298.41
244.53	1204.21
244.75	1241.07
244.97	1277.93
245.18	1269.74
245.40	1277.93
245.61	1306.60
245.83	1187.82
246.04	1279.98
246.26	1294.32
246.47	1327.08
246.69	1253.36
246.90	1257.45
247.12	1277.93
247.34	1277.93
247.55	1271.79
247.77	1230.83
247.98	1308.65
248.20	1173.49
248.41	1249.26
248.63	1302.51
248.84	1239.02
249.06	1204.21
249.27	1322.99
249.49	1251.31
249.70	1265.64
249.92	1212.40
250.13	1290.22
250.35	1277.93
250.56	1335.28
250.78	1294.32
251.00	1269.74
251.21	1271.79
251.43	1253.36
251.64	1236.97
251.86	1306.60
252.07	1286.12
252.29	1243.12
252.50	1208.30
252.72	1247.21
252.93	1247.21
253.15	1261.55
253.36	1251.31
253.58	1308.65
253.79	1298.41
254.01	1298.41
254.22	1300.46
254.44	1277.93
254.65	1228.78
254.87	1273.84
255.08	1302.51
255.30	1286.12
255.51	1228.78
255.73	1269.74
255.94	1284.08
256.16	1294.32
256.37	1230.83
256.59	1236.97
256.80	1236.97
257.02	1241.07
257.23	1232.88
257.45	1316.84
257.66	1288.17
257.88	1269.74
258.09	1241.07
258.31	1329.13
258.52	1251.31
258.74	1308.65
258.95	1331.18
259.16	1228.78
259.38	1267.69
259.59	1331.18
259.81	1228.78
260.02	1327.08
260.24	1282.03
260.45	1265.64
260.67	1234.93
260.88	1316.84
261.10	1284.08
261.31	1236.97
261.53	1228.78
261.74	1236.97
261.96	1294.32
262.17	1224.69
262.39	1294.32
262.60	1222.64
262.81	1290.22
263.03	1353.71
263.24	1279.98
263.46	1331.18
263.67	1372.14
263.89	1267.69
264.10	1267.69
264.32	1288.17
264.53	1318.89
264.75	1294.32
264.96	1261.55
265.17	1234.93
265.39	1251.31
265.60	1282.03
265.82	1224.69
266.03	1249.26
266.25	1363.95
266.46	1187.82
266.68	1300.46
266.89	1275.88
267.10	1243.12
267.32	1306.60
267.53	1306.60
267.75	1257.45
267.96	1290.22
268.18	1343.47
268.39	1294.32
268.61	1222.64
268.82	1300.46
269.03	1296.36
269.25	1286.12
269.46	1247.21
269.68	1284.08
269.89	1269.74
270.11	1320.94
270.32	1357.80
270.53	1279.98
270.75	1284.08
270.96	1277.93
271.18	1351.66
271.39	1279.98
271.60	1349.61
271.82	1300.46
272.03	1236.97
272.25	1302.51
272.46	1273.84
272.68	1282.03
272.89	1251.31
273.10	1288.17
273.32	1341.42
273.53	1292.27
273.75	1200.11
273.96	1243.12
274.17	1284.08
274.39	1308.65
274.60	1308.65
274.82	1294.32
275.03	1306.60
275.24	1320.94
275.46	1259.50
275.67	1265.64
275.89	1294.32
276.10	1310.70
276.31	1359.85
276.53	1251.31
276.74	1318.89
276.96	1253.36
277.17	1210.35
277.38	1312.75
277.60	1275.88
277.81	1243.12
278.02	1347.56
278.24	1259.50
278.45	1265.64
278.67	1261.55
278.88	1298.41
279.09	1253.36
279.31	1257.45
279.52	1353.71
279.73	1302.51
279.95	1220.59
280.16	1290.22
280.38	1339.37
280.59	1339.37
280.80	1243.12
281.02	1232.88
281.23	1316.84
281.44	1286.12
281.66	1288.17
281.87	1284.08
282.09	1284.08
282.30	1277.93
282.51	1290.22
282.73	1288.17
282.94	1314.80
283.15	1292.27
283.37	1296.36
283.58	1382.38
283.79	1304.56
284.01	1288.17
284.22	1400.81
284.43	1333.23
284.65	1382.38
284.86	1325.04
285.07	1359.85
285.29	1331.18
285.50	1361.90
285.72	1374.19
285.93	1337.32
286.14	1366.00
286.36	1454.06
286.57	1402.86
286.78	1390.57
287.00	1431.53
287.21	1503.21
287.42	1515.50
287.64	1490.92
287.85	1566.70
288.06	1437.67
288.28	1507.30
288.49	1603.56
288.70	1556.46
288.92	1552.36
289.13	1613.80
289.34	1597.42
289.56	1732.58
289.77	1595.37
289.98	1552.36
290.19	1679.33
290.41	1609.70
290.62	1634.28
290.83	1753.06
291.05	1665.00
291.26	1708.01
291.47	1708.01
291.69	1738.73
291.90	1691.62
292.11	1753.06
292.33	1822.69
292.54	1814.50
292.75	1804.26
292.97	1910.75
293.18	1972.19
293.39	1970.15
293.60	2021.35
293.82	2127.84
294.03	2181.09
294.24	2285.53
294.46	2361.31
294.67	2439.13
294.88	2357.21
295.10	2611.16
295.31	2590.68
295.52	2674.65
295.73	2697.17
295.95	2772.95
296.16	2975.70
296.37	2955.22
296.59	3065.81
296.80	3100.62
297.01	3198.93
297.22	3194.83
297.44	3348.43
297.65	3381.20
297.86	3508.17
298.08	3577.80
298.29	3567.56
298.50	3581.90
298.71	3784.65
298.93	3610.57
299.14	3745.73
299.35	3897.28
299.56	3866.56
299.78	3950.53
299.99	4001.73
300.20	3993.54
300.42	4036.55
300.63	4108.23
300.84	4124.61
301.05	4114.37
301.27	4169.66
301.48	4231.10
301.69	4337.60
301.90	4259.78
302.12	4364.22
302.33	4362.17
302.54	4235.20
302.75	4603.83
302.97	4483.00
303.18	4454.33
303.39	4564.92
303.60	4612.03
303.82	4607.93
304.03	4620.22
304.24	4726.71
304.45	4648.89
304.67	4837.30
304.88	4958.13
305.09	4741.05
305.30	4827.06
305.52	4865.97
305.73	4941.75
305.94	4941.75
306.15	4986.80
306.37	4927.41
306.58	5054.39
306.79	5023.67
307.00	5033.91
307.22	5048.24
307.43	5130.16
307.64	5115.83
307.85	5087.15
308.06	5081.01
308.28	5160.88
308.49	5261.23
308.70	5248.94
308.91	5242.80
309.13	5351.34
309.34	5339.05
309.55	5449.64
309.76	5332.91
309.97	5302.19
310.19	5394.35
310.40	5445.55
310.61	5517.23
310.82	5593.00
311.04	5525.42
311.25	5418.93
311.46	5590.95
311.67	5629.87
311.88	5652.39
312.10	5638.06
312.31	5623.72
312.52	5599.15
312.73	5554.09
312.94	5580.71
313.16	5836.71
313.37	5679.02
313.58	5816.23
313.79	5750.70
314.00	5836.71
314.22	5638.06
314.43	6029.22
314.64	5844.90
314.85	5783.46
315.06	5992.36
315.27	5937.06
315.49	6090.66
315.70	6049.70
315.91	5932.97
316.12	5978.02
316.33	6229.92
316.55	6092.71
316.76	5900.20
316.97	6123.43
317.18	6107.04
317.39	6104.99
317.60	6107.04
317.82	6238.11
318.03	6197.15
318.24	6223.78
318.45	6150.05
318.66	6205.35
318.88	6350.75
319.09	6332.32
319.30	6320.03
319.51	6317.98
319.72	6422.43
319.93	6479.77
320.15	6408.09
320.36	6438.81
320.57	6299.55
320.78	6461.34
320.99	6414.24
321.20	6614.94
321.41	6299.55
321.63	6506.40
321.84	6569.88
322.05	6252.45
322.26	6459.29
322.47	6629.27
322.68	6367.13
322.90	6475.68
323.11	6375.33
323.32	6676.38
323.53	6526.88
323.74	6483.87
323.95	6465.44
324.16	6518.68
324.38	6659.99
324.59	6604.70
324.80	6758.30
325.01	6641.56
325.22	6662.04
325.43	6614.94
325.64	6668.19
325.85	6545.31
326.07	6561.69
326.28	6563.74
326.49	6662.04
326.70	6543.26
326.91	6557.60
327.12	6354.85
327.33	6369.18
327.54	6602.65
327.76	6303.65
327.97	6391.71
328.18	6381.47
328.39	6234.02
328.60	6272.93
328.81	6225.82
329.02	6348.70
329.23	6569.88
329.45	6459.29
329.66	6653.85
329.87	6565.79
330.08	6653.85
330.29	6559.64
330.50	6547.36
330.71	6576.03
330.92	6655.90
331.13	6889.37
331.34	6778.78
331.56	7155.60
331.77	7045.01
331.98	7384.98
332.19	7241.62
332.40	7493.52
332.61	7243.67
332.82	7370.64
333.03	7290.77
333.24	7159.70
333.45	6866.84
333.67	6850.46
333.88	6754.20
334.09	6803.35
334.30	6918.04
334.51	6991.77
334.72	6762.39
334.93	6905.75
335.14	6858.65
335.35	6803.35
335.56	6772.63
335.77	6913.94
335.98	7018.39
336.19	6889.37
336.41	6995.86
336.62	6768.54
336.83	6784.92
337.04	6817.69
337.25	6983.57
337.46	6860.70
337.67	6770.58
337.88	6883.22
338.09	6983.57
338.30	6934.42
338.51	6922.13
338.72	6875.03
338.93	6889.37
339.14	6934.42
339.35	7026.58
339.57	6983.57
339.78	7098.26
339.99	7036.82
340.20	6975.38
340.41	7002.01
340.62	7073.68
340.83	6918.04
341.04	7010.20
341.25	6952.85
341.46	6887.32
341.67	6950.81
341.88	7143.32
342.09	7040.92
342.30	6950.81
342.51	7036.82
342.72	7077.78
342.93	7120.79
343.14	7288.72
343.35	6954.90
343.56	7393.17
343.77	7063.44
343.98	7002.01
344.19	7092.12
344.41	6940.57
344.62	6938.52
344.83	6981.53
345.04	7114.64
345.25	6987.67
345.46	7167.89
345.67	7167.89
345.88	7137.17
346.09	7096.21
346.30	7034.77
346.51	7231.38
346.72	7065.49
346.93	7225.23
347.14	7192.47
347.35	7178.13
347.56	6834.07
347.77	7178.13
347.98	7208.85
348.19	6981.53
348.40	7292.82
348.61	7208.85
348.82	7083.92
349.03	7024.53
349.24	7020.44
349.45	7047.06
349.66	7120.79
349.87	7186.32
350.08	7004.05
350.29	7133.08
350.50	7032.72
350.71	6877.08
350.92	7088.02
351.13	7045.01
351.34	6995.86
351.55	7063.44
351.76	6854.55
351.97	6778.78
352.18	6946.71
352.39	6918.04
352.60	6946.71
352.81	6903.70
353.02	7022.48
353.23	6985.62
353.44	6987.67
353.65	7049.11
353.86	7010.20
354.07	6979.48
354.28	6870.94
354.49	7032.72
354.70	6971.29
354.90	6975.38
355.11	6942.61
355.32	7034.77
355.53	6854.55
355.74	6948.76
355.95	6696.86
356.16	6961.05
356.37	6995.86
356.58	6868.89
356.79	6903.70
357.00	7045.01
357.21	6975.38
357.42	7141.27
357.63	6948.76
357.84	7139.22
358.05	6825.88
358.26	7182.23
358.47	7083.92
358.68	7122.84
358.89	7112.60
359.10	6829.98
359.31	7079.83
359.52	7049.11
359.73	7122.84
359.93	7145.36
360.14	7112.60
360.35	7266.19
360.56	7051.16
360.77	7174.03
360.98	7124.88
361.19	7163.79
361.40	7258.00
361.61	7356.30
361.82	7192.47
362.03	7243.67
362.24	7243.67
362.45	7292.82
362.66	7249.81
362.87	7210.90
363.07	7235.47
363.28	7470.99
363.49	7098.26
363.70	7202.71
363.91	7311.25
364.12	7387.02
364.33	7450.51
364.54	7661.45
364.75	7487.37
364.96	7403.41
365.17	7516.05
365.38	7634.83
365.58	7581.58
365.79	7489.42
366.00	7659.40
366.21	7509.90
366.42	7573.39
366.63	7606.16
366.84	7810.95
367.05	7669.64
367.26	7677.83
367.47	7380.88
367.67	7726.99
367.88	7690.12
368.09	7511.95
368.30	7647.12
368.51	7702.41
368.72	7669.64
368.93	7622.54
369.14	7450.51
369.35	7567.24
369.56	7688.07
369.76	7514.00
369.97	7602.06
370.18	7376.78
370.39	7538.57
370.60	7434.13
370.81	7581.58
371.02	7563.15
371.23	7530.38
371.43	7260.05
371.64	7552.91
371.85	7360.40
372.06	7430.03
372.27	7567.24
372.48	7470.99
372.69	7724.94
372.90	7663.50
373.10	7516.05
373.31	7634.83
373.52	7569.29
373.73	7526.29
373.94	7667.60
374.15	7739.27
374.36	7606.16
374.56	7759.75
374.77	7763.85
374.98	7518.09
375.19	7640.97
375.40	7640.97
375.61	7778.19
375.82	7888.78
376.02	7704.46
376.23	7851.91
376.44	7856.01
376.65	7673.74
376.86	7845.77
377.07	7767.95
377.28	7929.74
377.48	8056.71
377.69	7880.58
377.90	8077.19
378.11	8126.34
378.32	8023.94
378.53	7948.17
378.73	7888.78
378.94	7841.67
379.15	8042.37
379.36	8040.33
379.57	8148.87
379.78	7858.06
379.98	7720.84
380.19	7853.96
380.40	7806.86
380.61	7747.47
380.82	7696.27
381.03	7671.69
381.23	7901.06
381.44	7858.06
381.65	8073.09
381.86	7782.28
382.07	7696.27
382.27	7933.83
382.48	7868.30
382.69	7716.75
382.90	7726.99
383.11	7915.40
383.32	7606.16
383.52	7997.32
383.73	7724.94
383.94	7815.05
384.15	7862.15
384.36	7606.16
384.56	7714.70
384.77	7876.49
384.98	7800.71
385.19	7776.14
385.40	7546.76
385.60	7772.04
385.81	7831.43
386.02	7759.75
386.23	7823.24
386.43	7782.28
386.64	8032.13
386.85	7872.39
387.06	7919.50
387.27	8052.61
387.47	8003.46
387.68	7880.58
387.89	7931.78
388.10	7733.13
388.31	8220.55
388.51	8032.13
388.72	7960.45
388.93	7784.33
389.14	7800.71
389.34	7819.14
389.55	7759.75
389.76	7524.24
389.97	7720.84
390.18	7907.21
390.38	8095.62
390.59	7851.91
390.80	7935.88
391.01	8030.09
391.21	8093.57
391.42	8243.07
391.63	8275.84
391.84	8124.29
392.04	8419.20
392.25	8433.54
392.46	8146.82
392.67	8406.91
392.87	8066.95
393.08	7815.05
393.29	8019.85
393.50	8157.06
393.70	8087.43
393.91	7950.21
394.12	7950.21
394.33	7763.85
394.53	7753.61
394.74	7788.43
394.95	7790.47
395.16	8044.42
395.36	7602.06
395.57	7749.51
395.78	7645.07
395.99	7784.33
396.19	8101.76
396.40	7886.73
396.61	8042.37
396.81	7866.25
397.02	8198.02
397.23	8241.03
397.44	8560.51
397.64	8499.07
397.85	8511.36
398.06	8433.54
398.27	8318.85
398.47	8343.42
398.68	8003.46
398.89	8019.85
399.09	7997.32
399.30	7894.92
399.51	8169.35
399.72	8036.23
399.92	8171.40
400.13	7911.30
400.34	7737.23
400.54	7796.62
400.75	8167.30
400.96	7956.36
401.17	8142.72
401.37	7923.59
401.58	8034.18
401.79	7841.67
401.99	8093.57
402.20	8101.76
402.41	7911.30
402.61	7847.82
402.82	8019.85
403.03	7837.58
403.24	7686.03
403.44	7806.86
403.65	7700.36
403.86	8267.65
404.06	8271.75
404.27	7882.63
404.48	7933.83
404.68	8226.69
404.89	8142.72
405.10	8136.58
405.30	8054.66
405.51	7798.66
405.72	7870.34
405.92	7645.07
406.13	7868.30
406.34	7927.69
406.54	7868.30
406.75	7767.95
406.96	7815.05
407.16	8265.60
407.37	8185.73
407.58	8126.34
407.78	7935.88
407.99	8175.49
408.20	8339.33
408.40	8191.88
408.61	7946.12
408.82	8032.13
409.02	7931.78
409.23	8071.04
409.44	8216.45
409.64	7743.37
409.85	7958.41
410.06	7749.51
410.26	8003.46
410.47	8032.13
410.68	7819.14
410.88	8300.42
411.09	8071.04
411.30	8224.64
411.50	7952.26
411.71	8011.65
411.91	8308.61
412.12	8083.33
412.33	8273.79
412.53	7810.95
412.74	8130.44
412.95	8187.78
413.15	8449.92
413.36	8036.23
413.57	7917.45
413.77	7843.72
413.98	8136.58
414.18	8036.23
414.39	7864.20
414.60	7823.24
414.80	8177.54
415.01	7837.58
415.22	8036.23
415.42	7993.22
415.63	7921.54
415.83	7872.39
416.04	7606.16
416.25	7769.99
416.45	7974.79
416.66	7679.88
416.86	7962.50
417.07	8097.67
417.28	8001.41
417.48	7843.72
417.69	7872.39
417.89	7966.60
418.10	7628.68
418.31	8189.83
418.51	7970.69
418.72	8230.79
418.92	7761.80
419.13	8013.70
419.34	8138.63
419.54	8281.99
419.75	8187.78
419.95	8345.47
420.16	8179.59
420.37	8470.40
420.57	8585.08
420.78	8480.64
420.98	8611.71
421.19	8777.59
421.40	8513.41
421.60	8327.04
421.81	8281.99
422.01	8245.12
422.22	8232.83
422.42	8148.87
422.63	8275.84
422.84	8011.65
423.04	7821.19
423.25	8009.61
423.45	7960.45
423.66	8064.90
423.86	8085.38
424.07	8306.56
424.28	8580.99
424.48	8288.13
424.69	8069.00
424.89	8052.61
425.10	8114.05
425.30	7864.20
425.51	7561.10
425.72	7870.34
425.92	7735.18
426.13	7624.59
426.33	7917.45
426.54	8245.12
426.74	7944.07
426.95	7939.97
427.15	7935.88
427.36	8198.02
427.56	7829.38
427.77	8249.22
427.98	8169.35
428.18	8099.72
428.39	8503.17
428.59	8560.51
428.80	8458.11
429.00	8916.86
429.21	8890.23
429.41	8617.85
429.62	8894.33
429.82	9000.82
430.03	8746.87
430.23	8675.20
430.44	8902.52
430.65	8279.94
430.85	8789.88
431.06	8384.38
431.26	8339.33
431.47	7876.49
431.67	8253.31
431.88	8095.62
432.08	8109.96
432.29	7933.83
432.49	8204.16
432.70	7837.58
432.90	7804.81
433.11	7952.26
433.31	8122.24
433.52	8073.09
433.72	7819.14
433.93	7952.26
434.13	8130.44
434.34	8103.81
434.54	8378.24
434.75	8232.83
434.95	8474.49
435.16	8472.45
435.36	8392.58
435.57	8294.27
435.77	8359.81
435.98	8406.91
436.18	8337.28
436.39	7827.34
436.59	8109.96
436.80	8255.36
437.00	8130.44
437.21	8247.17
437.41	8247.17
437.62	8531.84
437.82	8411.01
438.03	8007.56
438.23	8423.30
438.44	7962.50
438.64	7905.16
438.85	8025.99
439.05	8177.54
439.25	8300.42
439.46	7825.29
439.66	7626.64
439.87	8050.57
440.07	7790.47
440.28	7923.59
440.48	7856.01
440.69	8075.14
440.89	8198.02
441.10	8146.82
441.30	7958.41
441.51	7925.64
441.71	8216.45
441.92	7825.29
442.12	8073.09
442.32	7985.03
442.53	7853.96
442.73	8341.38
442.94	7927.69
443.14	8259.46
443.35	7604.11
443.55	8132.48
443.76	7888.78
443.96	7925.64
444.16	7956.36
444.37	8109.96
444.57	8093.57
444.78	8230.79
444.98	8093.57
445.19	8163.20
445.39	8189.83
445.60	8056.71
445.80	8046.47
446.00	8169.35
446.21	8167.30
446.41	7759.75
446.62	7956.36
446.82	8007.56
447.03	7987.08
447.23	8073.09
447.43	7907.21
447.64	7935.88
447.84	7669.64
448.05	7716.75
448.25	7761.80
448.45	8036.23
448.66	7786.38
448.86	7720.84
449.07	8159.11
449.27	7956.36
449.48	7884.68
449.68	7860.10
449.88	7839.62
450.09	7837.58
450.29	7923.59
450.50	7669.64
450.70	7755.66
450.90	7905.16
451.11	7683.98
451.31	7726.99
451.52	7653.26
451.72	7483.28
451.92	7698.31
452.13	7671.69
452.33	7806.86
452.54	7544.72
452.74	7348.11
452.94	7419.79
453.15	7501.71
453.35	7346.06
453.55	7528.33
453.76	7364.50
453.96	7307.15
454.17	7159.70
454.37	7489.42
454.57	7247.76
454.78	7534.48
454.98	7268.24
455.19	7241.62
455.39	7597.96
455.59	7464.85
455.80	7206.80
456.00	7413.65
456.20	7815.05
456.41	7665.55
456.61	7364.50
456.81	7468.94
457.02	7341.97
457.22	7462.80
457.43	7368.59
457.63	7249.81
457.83	7321.49
458.04	7251.86
458.24	7264.15
458.44	7102.36
458.65	7309.20
458.85	7081.88
459.05	7348.11
459.26	7204.75
459.46	7423.89
459.66	7425.93
459.87	7757.71
460.07	7407.50
460.27	7704.46
460.48	7589.77
460.68	7522.19
460.88	7176.08
461.09	6987.67
461.29	7188.37
461.49	6868.89
461.70	7036.82
461.90	6913.94
462.10	6698.91
462.31	7012.24
462.51	6864.79
462.71	6782.87
462.92	6946.71
463.12	6881.18
463.32	7294.86
463.53	7210.90
463.73	7509.90
463.93	7395.22
464.14	7444.37
464.34	7671.69
464.54	7856.01
464.75	7800.71
464.95	7788.43
465.15	7653.26
465.36	7557.00
465.56	7413.65
465.76	7169.94
465.96	7298.96
466.17	7047.06
466.37	7161.75
466.57	7481.23
466.78	6989.72
466.98	7120.79
467.18	7301.01
467.39	7239.57
467.59	7245.71
467.79	7088.02
467.99	7006.10
468.20	7229.33
468.40	7053.20
468.60	6961.05
468.81	7186.32
469.01	7047.06
469.21	6848.41
469.41	6950.81
469.62	7077.78
469.82	7241.62
470.02	6981.53
470.23	6969.24
470.43	7071.64
470.63	6967.19
470.83	7069.59
471.04	7167.89
471.24	7188.37
471.44	7088.02
471.65	7239.57
471.85	7321.49
472.05	7499.66
472.25	7243.67
472.46	7411.60
472.66	7751.56
472.86	7647.12
473.06	7663.50
473.27	7622.54
473.47	7737.23
473.67	7751.56
473.87	7718.79
474.08	8159.11
474.28	8069.00
474.48	8249.22
474.68	8025.99
474.89	8171.40
475.09	8114.05
475.29	8200.07
475.49	8007.56
475.70	8314.75
475.90	8238.98
476.10	8124.29
476.30	8103.81
476.51	8263.55
476.71	8148.87
476.91	8359.81
477.11	8200.07
477.32	8298.37
477.52	8480.64
477.72	8204.16
477.92	8324.99
478.12	8398.72
478.33	8454.02
478.53	8486.78
478.73	8472.45
478.93	8634.24
479.14	8517.50
479.34	9011.06
479.54	9006.97
479.74	8718.20
479.94	8773.50
480.15	9086.84
480.35	9058.17
480.55	9328.50
480.75	9377.65
480.96	9250.67
481.16	9242.48
481.36	9308.02
481.56	9111.41
481.76	9011.06
481.97	9092.98
482.17	9162.61
482.37	9387.89
482.57	9162.61
482.77	9351.03
482.98	9402.22
483.18	9564.01
483.38	9703.28
483.58	9734.00
483.78	9930.60
483.98	9942.89
484.19	10049.38
484.39	10274.66
484.59	10628.96
484.79	10606.43
484.99	10985.30
485.20	10932.06
485.40	10649.44
485.60	10504.03
485.80	10708.83
486.00	10694.49
486.20	10647.39
486.41	10733.40
486.61	10338.15
486.81	10186.60
487.01	10223.46
487.21	10010.47
487.42	10045.29
487.62	9996.14
487.82	9830.25
488.02	10057.57
488.22	9826.15
488.42	9756.52
488.62	9807.72
488.83	9895.78
489.03	9973.61
489.23	9721.71
489.43	9604.97
489.63	9635.69
489.83	9871.21
490.04	9705.32
490.24	9641.84
490.44	9580.40
490.64	9377.65
490.84	9518.96
491.04	9506.67
491.24	9555.82
491.45	9559.92
491.65	9543.53
491.85	9621.36
492.05	9615.21
492.25	9523.05
492.45	9742.19
492.65	9807.72
492.86	9680.75
493.06	9678.70
493.26	9680.75
493.46	10020.71
493.66	9604.97
493.86	9836.39
494.06	9527.15
494.26	9688.94
494.47	9910.12
494.67	10088.29
494.87	9998.18
495.07	10186.60
495.27	10360.67
495.47	10434.40
495.67	10254.18
495.87	10202.98
496.07	10194.79
496.28	10026.86
496.48	10008.42
496.68	9893.74
496.88	9641.84
497.08	9787.24
497.28	9699.18
497.48	9672.56
497.68	9609.07
497.88	9482.10
498.08	9576.30
498.29	9561.97
498.49	9506.67
498.69	9551.73
498.89	9537.39
499.09	9482.10
499.29	9265.01
499.49	9230.20
499.69	9416.56
499.89	9543.53
500.09	9340.79
500.29	9725.80
500.50	9373.55
500.70	9832.30
500.90	9707.37
501.10	9604.97
501.30	9525.10
501.50	9516.91
501.70	9447.28
501.90	9738.09
502.10	9596.78
502.30	9650.03
502.50	9588.59
502.70	9617.26
502.90	9553.77
503.10	9625.45
503.31	9633.64
503.51	9746.28
503.71	9434.99
503.91	9457.52
504.11	9529.20
504.31	9408.37
504.51	9320.31
504.71	9308.02
504.91	9135.99
505.11	9066.36
505.31	9222.00
505.51	9146.23
505.71	8947.58
505.91	9041.78
506.11	8904.57
506.31	9033.59
506.51	8931.19
506.71	9076.60
506.91	9084.79
507.11	9117.56
507.31	9002.87
507.51	8972.15
507.72	8810.36
507.92	8886.14
508.12	8775.55
508.32	8810.36
508.52	8933.24
508.72	8761.21
508.92	8888.18
509.12	8859.51
509.32	8939.38
509.52	8820.60
509.72	8980.34
509.92	9049.97
510.12	9013.11
510.32	8574.85
510.52	8849.27
510.72	9066.36
510.92	8986.49
511.12	8814.46
511.32	8738.68
511.52	8873.85
511.72	8910.71
511.92	8830.84
512.12	8617.85
512.32	8908.66
512.52	8716.16
512.72	8873.85
512.92	8685.44
513.12	8746.87
513.32	8705.92
513.52	8707.96
513.72	8558.46
513.92	8470.40
514.12	8462.21
514.32	8456.06
514.52	8443.78
514.72	8521.60
514.92	8652.67
515.12	8718.20
515.32	8728.44
515.52	8763.26
515.72	8785.79
515.92	8988.53
516.12	8808.31
516.32	8687.48
516.52	8826.75
516.72	8824.70
516.92	8558.46
517.12	8761.21
517.32	8818.55
517.51	8800.12
517.71	9191.28
517.91	9146.23
518.11	9097.08
518.31	9047.93
518.51	9002.87
518.71	9207.67
518.91	8998.77
519.11	8935.29
519.31	8875.90
519.51	8714.11
519.71	8914.81
519.91	8757.11
520.11	8730.49
520.31	9054.07
520.51	8947.58
520.71	8818.55
520.91	8963.96
521.11	8884.09
521.31	8900.47
521.51	8843.13
521.70	8968.06
521.90	9103.22
522.10	9000.82
522.30	9006.97
522.50	8925.05
522.70	9197.43
522.90	8949.62
523.10	9222.00
523.30	8863.61
523.50	9092.98
523.70	8990.58
523.90	9082.74
524.10	9072.50
524.30	9037.69
524.49	9047.93
524.69	9174.90
524.89	9246.58
525.09	9047.93
525.29	9107.32
525.49	9252.72
525.69	9230.20
525.89	9111.41
526.09	9277.30
526.29	9015.16
526.49	8935.29
526.68	8914.81
526.88	8957.82
527.08	8941.43
527.28	9133.94
527.48	9166.71
527.68	9045.88
527.88	9256.82
528.08	9289.59
528.28	9215.86
528.48	9133.94
528.67	9308.02
528.87	9195.38
529.07	9256.82
529.27	9402.22
529.47	9187.19
529.67	9000.82
529.87	9158.52
530.07	9074.55
530.26	9150.32
530.46	9328.50
530.66	9158.52
530.86	9168.76
531.06	9232.24
531.26	8941.43
531.46	9125.75
531.66	9256.82
531.85	9156.47
532.05	8996.73
532.25	9308.02
532.45	9353.07
532.65	9211.76
532.85	9262.96
533.05	9324.40
533.25	9217.91
533.44	9455.47
533.64	9336.69
533.84	9449.33
534.04	9543.53
534.24	9455.47
534.44	9506.67
534.63	9445.23
534.83	9396.08
535.03	9283.44
535.23	9193.33
535.43	9252.72
535.63	9056.12
535.83	9207.67
536.02	9090.93
536.22	9166.71
536.42	9371.50
536.62	9133.94
536.82	9426.80
537.02	9461.62
537.21	9453.42
537.41	9559.92
537.61	9805.67
537.81	9602.93
538.01	9738.09
538.21	9949.03
538.40	9783.15
538.60	9768.81
538.80	9652.08
539.00	9680.75
539.20	9531.25
539.39	9463.66
539.59	9500.53
539.79	9596.78
539.99	9396.08
540.19	9465.71
540.39	9332.59
540.58	9770.86
540.78	9588.59
540.98	9734.00
541.18	9637.74
541.38	9574.25
541.57	9774.95
541.77	9609.07
541.97	9598.83
542.17	9676.65
542.37	9668.46
542.56	9748.33
542.76	9621.36
542.96	9973.61
543.16	9858.92
543.35	9994.09
543.55	9895.78
543.75	10082.15
543.95	10004.33
544.15	9908.07
544.34	9930.60
544.54	9953.13
544.74	9897.83
544.94	9783.15
545.14	10024.81
545.33	9811.82
545.53	9678.70
545.73	9826.15
545.93	9848.68
546.12	9944.94
546.32	10102.63
546.52	10200.93
546.72	10317.67
546.91	10123.11
547.11	10266.47
547.31	10110.82
547.51	10037.09
547.70	9805.67
547.90	9783.15
548.10	9858.92
548.30	9512.81
548.50	9611.12
548.69	9430.90
548.89	9310.07
549.09	9467.76
549.29	9371.50
549.48	9242.48
549.68	9420.66
549.88	9224.05
550.07	9451.38
550.27	9467.76
550.47	9400.18
550.67	9414.51
550.86	9637.74
551.06	9824.11
551.26	9895.78
551.46	9949.03
551.65	9924.46
551.85	10053.48
552.05	9987.94
552.25	9965.42
552.44	10106.73
552.64	9938.79
552.84	9871.21
553.03	9711.47
553.23	9731.95
553.43	9949.03
553.63	9623.41
553.82	9977.70
554.02	9844.59
554.22	10180.45
554.41	10342.24
554.61	10209.12
554.81	10184.55
555.01	10033.00
555.20	9854.83
555.40	9815.91
555.60	9596.78
555.79	9635.69
555.99	9623.41
556.19	9445.23
556.38	9432.94
556.58	9113.46
556.78	9265.01
556.98	9164.66
557.17	9367.41
557.37	9033.59
557.57	9224.05
557.76	9109.36
557.96	9150.32
558.16	9076.60
558.35	9232.24
558.55	9250.67
558.75	9707.37
558.94	9566.06
559.14	9705.32
559.34	10033.00
559.53	10043.24
559.73	10102.63
559.93	10266.47
560.12	10542.94
560.32	10461.02
560.52	10289.00
560.71	10622.81
560.91	10442.59
561.11	10364.77
561.30	10164.07
561.50	10377.06
561.70	10274.66
561.89	10112.87
562.09	10456.93
562.29	10682.20
562.48	10446.69
562.68	10700.64
562.88	10526.56
563.07	10217.32
563.27	10106.73
563.47	10174.31
563.66	10213.22
563.86	10227.56
564.06	9897.83
564.25	9910.12
564.45	9813.87
564.64	9926.50
564.84	9615.21
565.04	9688.94
565.23	9840.49
565.43	9688.94
565.63	9832.30
565.82	9983.85
566.02	9924.46
566.22	10080.10
566.41	10235.75
566.61	10223.46
566.80	10149.73
567.00	10415.97
567.20	10534.75
567.39	10655.58
567.59	10643.29
567.78	11177.81
567.98	11087.70
568.18	11337.56
568.37	11482.96
568.57	11841.36
568.77	11683.66
568.96	11843.40
569.16	12052.30
569.35	12187.46
569.55	12257.09
569.75	12701.50
569.94	12781.37
570.14	12922.68
570.33	13270.84
570.53	13580.08
570.73	13580.08
570.92	13580.08
571.12	13301.56
571.31	13012.79
571.51	12902.20
571.71	13070.14
571.90	13104.95
572.10	13500.21
572.29	13588.27
572.49	13848.36
572.68	13844.27
572.88	14081.83
573.08	14030.63
573.27	14298.92
573.47	14436.13
573.66	14753.57
573.86	14591.78
574.05	14645.02
574.25	14200.62
574.45	14169.90
574.64	13885.23
574.84	13760.30
575.03	13580.08
575.23	14137.13
575.42	13705.01
575.62	14038.83
575.82	13930.28
576.01	14243.62
576.21	14712.61
576.40	15748.88
576.60	16164.62
576.79	16856.83
576.99	17186.55
577.18	17182.46
577.38	16393.99
577.57	15787.79
577.77	15183.64
577.97	14923.55
578.16	14624.54
578.36	14858.01
578.55	14659.36
578.75	14337.83
578.94	14341.93
579.14	14274.34
579.33	14217.00
579.53	14341.93
579.72	15056.67
579.92	16344.84
580.11	17356.54
580.31	18198.25
580.50	18351.85
580.70	18546.40
580.90	18632.42
581.09	17377.01
581.29	16844.54
581.48	16250.63
581.68	15838.99
581.87	15021.85
582.07	14669.60
582.26	14020.39
582.46	13700.91
582.65	13504.31
582.85	13350.71
583.04	13145.91
583.24	13881.13
583.43	14425.89
583.63	14980.89
583.82	15363.86
584.02	15943.44
584.21	16258.82
584.41	16520.96
584.60	16105.23
584.80	15714.06
584.99	15308.57
585.19	15052.57
585.38	14759.71
585.58	14237.48
585.77	14544.67
585.97	14575.39
586.16	14991.13
586.35	14974.75
586.55	14843.68
586.74	14946.08
586.94	15027.99
587.13	14747.42
587.33	14573.35
587.52	14333.73
587.72	14010.15
587.91	13530.93
588.11	13416.24
588.30	13043.51
588.50	13033.27
588.69	13090.62
588.89	13080.38
589.08	12906.30
589.28	13123.38
589.47	12728.13
589.66	12386.12
589.86	12304.20
590.05	12572.48
590.25	12515.14
590.44	12805.95
590.64	12859.20
590.83	12914.49
591.03	12906.30
591.22	13662.00
591.41	14065.45
591.61	14671.65
591.80	15261.46
592.00	15681.30
592.19	15802.13
592.39	15740.69
592.58	15410.96
592.78	15234.84
592.97	14425.89
593.16	14286.63
593.36	13748.01
593.55	13502.26
593.75	13326.13
593.94	13426.48
594.14	13428.53
594.33	13391.67
594.52	12998.46
594.72	12918.59
594.91	12592.96
595.11	12713.79
595.30	12347.20
595.49	12437.31
595.69	12310.34
595.88	12717.89
596.08	12941.11
596.27	13420.34
596.47	13645.62
596.66	13797.17
596.85	13500.21
597.05	13956.91
597.24	14284.58
597.44	14993.18
597.63	15025.95
597.82	16017.16
598.02	16115.47
598.21	16205.58
598.40	16047.88
598.60	16381.70
598.79	16299.78
598.99	16502.53
599.18	16174.86
599.37	16285.45
599.57	15605.52
599.76	15265.56
599.96	14653.22
600.15	14614.30
600.34	14335.78
600.54	14073.64
600.73	13561.65
600.92	13260.60
601.12	13129.53
601.31	12799.80
601.51	12371.78
601.70	12490.56
601.89	12971.83
602.09	13117.24
602.28	13238.07
602.47	13762.35
602.67	13760.30
602.86	14219.05
603.05	14012.20
603.25	13963.05
603.44	14126.89
603.63	14196.52
603.83	14010.15
604.02	14018.35
604.22	14509.86
604.41	14872.35
604.60	14976.80
604.80	14937.88
604.99	15197.98
605.18	15363.86
605.38	15392.53
605.57	15552.27
605.76	15384.34
605.96	15712.02
606.15	15693.58
606.34	15832.85
606.54	15650.58
606.73	15515.41
606.92	14956.32
607.12	14565.15
607.31	14135.08
607.50	13989.67
607.70	13797.17
607.89	13369.14
608.08	12910.40
608.28	13086.52
608.47	12764.99
608.66	13096.76
608.85	12941.11
609.05	12990.27
609.24	12631.87
609.43	12756.80
609.63	12775.23
609.82	12986.17
610.01	13008.70
610.21	13139.77
610.40	12977.98
610.59	13147.96
610.79	13215.54
610.98	13002.55
611.17	12934.97
611.36	13002.55
611.56	13174.58
611.75	13238.07
611.94	13295.41
612.14	13440.82
612.33	13133.62
612.52	13412.15
612.71	13377.33
612.91	13408.05
613.10	13573.94
613.29	13827.88
613.49	14417.70
613.68	14448.42
613.87	15042.33
614.06	15060.76
614.26	14769.95
614.45	14444.32
614.64	14081.83
614.83	13801.26
615.03	13471.54
615.22	13637.42
615.41	12982.07
615.60	12818.24
615.80	12908.35
615.99	12816.19
616.18	12721.98
616.38	12646.21
616.57	12253.00
616.76	12625.73
616.95	12691.26
617.15	12697.41
617.34	12668.73
617.53	12805.95
617.72	12674.88
617.92	12359.49
618.11	12398.40
618.30	12715.84
618.49	12805.95
618.68	12709.69
618.88	12762.94
619.07	12838.72
619.26	12937.02
619.45	12906.30
619.65	12427.07
619.84	12447.55
620.03	12189.51
620.22	12326.72
620.42	12621.63
620.61	12902.20
620.80	13459.25
620.99	13596.46
621.18	13418.29
621.38	13698.86
621.57	13637.42
621.76	13412.15
621.95	13424.44
622.15	13440.82
622.34	13344.56
622.53	13528.88
622.72	13616.94
622.91	13438.77
623.11	13748.01
623.30	13948.72
623.49	13690.67
623.68	13741.87
623.87	13438.77
624.07	13410.10
624.26	13428.53
624.45	13221.69
624.64	13240.12
624.83	13033.27
625.03	13242.17
625.22	13313.84
625.41	13168.44
625.60	13174.58
625.79	13414.20
625.98	13414.20
626.18	13223.73
626.37	13647.66
626.56	13268.79
626.75	13295.41
626.94	13326.13
627.14	13281.08
627.33	13018.94
627.52	12967.74
627.71	12793.66
627.90	13152.06
628.09	13113.14
628.29	13289.27
628.48	13401.91
628.67	13098.81
628.86	13133.62
629.05	13016.89
629.24	12812.09
629.43	13115.19
629.63	12963.64
629.82	12963.64
630.01	12738.37
630.20	12515.14
630.39	12595.01
630.58	12547.90
630.78	12238.66
630.97	12468.03
631.16	12117.83
631.35	12158.79
631.54	12068.68
631.73	12214.09
631.92	12078.92
632.11	12121.93
632.31	12052.30
632.50	12193.61
632.69	12091.21
632.88	12173.13
633.07	12040.01
633.26	12304.20
633.45	11892.55
633.65	12379.97
633.84	11947.85
634.03	11890.51
634.22	11972.43
634.41	11945.80
634.60	12156.74
634.79	12330.82
634.98	12322.63
635.17	12635.97
635.37	12367.68
635.56	12963.64
635.75	12695.36
635.94	12490.56
636.13	12384.07
636.32	12545.86
636.51	11974.47
636.70	12289.86
636.89	12179.27
637.08	12162.89
637.28	12173.13
637.47	11923.27
637.66	11978.57
637.85	12214.09
638.04	12220.23
638.23	12156.74
638.42	11986.76
638.61	11986.76
638.80	11917.13
638.99	12017.48
639.18	12191.56
639.38	12126.02
639.57	12101.45
639.76	12189.51
639.95	11925.32
640.14	12230.47
640.33	12037.96
640.52	11904.84
640.71	11722.57
640.90	11997.00
641.09	12091.21
641.28	12062.54
641.47	11910.99
641.66	11698.00
641.85	11784.01
642.04	12027.72
642.24	11943.75
642.43	12033.86
642.62	12541.76
642.81	12009.29
643.00	12040.01
643.19	12308.29
643.38	12078.92
643.57	12179.27
643.76	12017.48
643.95	11939.66
644.14	11904.84
644.33	12095.30
644.52	11966.28
644.71	12148.55
644.90	11990.86
645.09	11992.90
645.28	11763.53
645.47	11966.28
645.66	11992.90
645.85	12037.96
646.04	11732.81
646.23	11761.48
646.42	11915.08
646.61	12365.64
646.80	12123.98
646.99	12451.65
647.18	12566.34
647.37	12879.68
647.56	12801.85
647.75	13201.21
647.95	13131.58
648.14	13129.53
648.33	13055.80
648.52	13074.23
648.71	13115.19
648.90	12801.85
649.09	12803.90
649.28	12867.39
649.47	12435.27
649.66	12654.40
649.85	12482.37
650.04	12754.75
650.23	12556.10
650.42	12621.63
650.61	12566.34
650.79	12685.12
650.98	12642.11
651.17	12678.97
651.36	12633.92
651.55	12750.65
651.74	12717.89
651.93	12787.52
652.12	12615.49
652.31	12832.57
652.50	12748.61
652.69	12689.21
652.88	12508.99
653.07	12531.52
653.26	12404.55
653.45	12527.42
653.64	12547.90
653.83	12785.47
654.02	12877.63
654.21	13854.51
654.40	16054.03
654.59	19001.05
654.78	21188.28
654.97	22832.80
655.16	23340.70
655.35	23205.53
655.54	21601.97
655.73	19709.65
655.92	17815.28
656.11	16733.95
656.30	15974.16
656.48	15468.31
656.67	14765.85
656.86	14561.06
657.05	14130.98
657.24	14104.36
657.43	13633.33
657.62	13569.84
657.81	13287.22
658.00	13201.21
658.19	13084.47
658.38	12975.93
658.57	12865.34
658.76	13045.56
658.95	12644.16
659.13	12683.07
659.32	12582.72
659.51	12511.04
659.70	12646.21
659.89	12650.30
660.08	12566.34
660.27	12570.43
660.46	12660.54
660.65	12633.92
660.84	12658.49
661.03	12801.85
661.22	12715.84
661.40	12617.54
661.59	12588.86
661.78	12574.53
661.97	12517.18
662.16	12689.21
662.35	12541.76
662.54	12791.61
662.73	12816.19
662.92	12851.00
663.11	12963.64
663.29	13035.32
663.48	13025.08
663.67	13063.99
663.86	13111.10
664.05	13207.35
664.24	13016.89
664.43	13258.55
664.62	12894.01
664.80	13131.58
664.99	13147.96
665.18	12748.61
665.37	12908.35
665.56	12963.64
665.75	12666.69
665.94	12846.91
666.13	12752.70
666.31	12859.20
666.50	12777.28
666.69	12969.79
666.88	12738.37
667.07	12873.53
667.26	12691.26
667.45	13121.34
667.63	12672.83
667.82	13207.35
668.01	13043.51
668.20	13043.51
668.39	13201.21
668.58	13188.92
668.76	12947.26
668.95	13125.43
669.14	13186.87
669.33	13209.40
669.52	13301.56
669.71	13272.89
669.90	13233.97
670.08	13500.21
670.27	13549.36
670.46	14116.65
670.65	14151.46
670.84	14303.01
671.03	14401.32
671.21	14329.64
671.40	14225.19
671.59	14217.00
671.78	14030.63
671.97	13963.05
672.15	13635.38
672.34	13647.66
672.53	13561.65
672.72	13623.09
672.91	13508.40
673.09	13618.99
673.28	13643.57
673.47	13453.11
673.66	13539.12
673.85	13446.96
674.04	13291.32
674.22	13559.60
674.41	13473.59
674.60	13807.41
674.79	13524.79
674.98	13694.77
675.16	13430.58
675.35	13793.07
675.54	13403.96
675.73	13756.21
675.91	13578.03
676.10	13629.23
676.29	13858.60
676.48	13829.93
676.67	13811.50
676.85	14047.02
677.04	14075.69
677.23	14004.01
677.42	13932.33
677.60	14028.59
677.79	13997.87
677.98	14090.02
678.17	14368.55
678.36	14147.37
678.54	14235.43
678.73	14511.91
678.92	14145.32
679.11	14407.46
679.29	14200.62
679.48	14024.49
679.67	13895.47
679.86	13711.15
680.04	14096.17
680.23	13971.24
680.42	14116.65
680.61	14202.66
680.79	14210.86
680.98	14055.21
681.17	14067.50
681.36	13991.72
681.54	14034.73
681.73	13901.61
681.92	13778.73
682.11	13664.05
682.29	13717.29
682.48	13827.88
682.67	13739.82
682.85	14346.02
683.04	14122.79
683.23	14481.19
683.42	14223.14
683.60	14681.89
683.79	14460.71
683.98	14749.47
684.17	14690.08
684.35	15126.30
684.54	15118.11
684.73	14952.22
684.91	15187.74
685.10	14665.50
685.29	14759.71
685.48	14731.04
685.66	14421.80
685.85	14403.36
686.04	14530.34
686.22	14563.11
686.41	14511.91
686.60	14503.71
686.78	14550.82
686.97	14649.12
687.16	14317.35
687.35	14673.70
687.53	13946.67
687.72	14544.67
687.91	14096.17
688.09	14268.20
688.28	14286.63
688.47	14575.39
688.65	14305.06
688.84	14374.69
689.03	14413.60
689.21	14425.89
689.40	14118.70
689.59	14475.04
689.77	14530.34
689.96	14753.57
690.15	14970.65
690.33	15296.28
690.52	14831.39
690.71	15124.25
690.89	14882.59
691.08	14913.31
691.27	14839.58
691.45	14751.52
691.64	14571.30
691.83	14825.25
692.01	14759.71
692.20	14602.02
692.39	14595.87
692.57	14397.22
692.76	14655.26
692.95	14688.03
693.13	14405.41
693.32	14401.32
693.50	14288.68
693.69	14466.85
693.88	14368.55
694.06	14853.92
694.25	14612.26
694.44	14868.25
694.62	14769.95
694.81	14839.58
695.00	14425.89
695.18	14720.80
695.37	14524.19
695.55	14917.40
695.74	14901.02
695.93	15537.94
696.11	15621.91
696.30	15763.22
696.49	15888.14
696.67	15728.40
696.86	15656.72
697.04	15230.74
697.23	15261.46
697.42	15107.87
697.60	15032.09
697.79	14976.80
697.97	14935.84
698.16	14878.49
698.35	14479.14
698.53	14581.54
698.72	14407.46
698.90	14579.49
699.09	14640.93
699.28	14331.69
699.46	14194.47
699.65	14399.27
699.83	14282.53
700.02	14530.34
700.21	14167.85
700.39	14223.14
700.58	14262.05
700.76	14585.63
700.95	14585.63
701.13	14636.83
701.32	14948.12
701.51	15083.29
701.69	15312.66
701.88	15077.15
702.06	15154.97
702.25	15019.80
702.43	14634.78
702.62	15099.67
702.81	14628.64
702.99	14917.40
703.18	14583.59
703.36	14661.41
703.55	14774.05
703.73	14692.13
703.92	14526.24
704.10	14788.38
704.29	14440.23
704.48	14483.24
704.66	14286.63
704.85	14341.93
705.03	14227.24
705.22	14477.09
705.40	14909.21
705.59	14810.91
705.77	15146.78
705.96	15554.32
706.14	15607.57
706.33	16013.07
706.51	15927.05
706.70	16062.22
706.89	15656.72
707.07	15931.15
707.26	15757.07
707.44	15658.77
707.63	15456.02
707.81	15507.22
708.00	15439.64
708.18	15228.70
708.37	15288.09
708.55	15009.56
708.74	15126.30
708.92	14966.56
709.11	14774.05
709.29	15138.58
709.48	14808.86
709.66	14929.69
709.85	14806.81
710.03	15140.63
710.22	15120.15
710.40	14915.36
710.59	14886.68
710.77	14833.44
710.96	14556.96
711.14	14747.42
711.33	14860.06
711.51	15271.70
711.70	15230.74
711.88	15351.57
712.07	15453.97
712.25	15570.71
712.44	15552.27
712.62	15408.92
712.81	15486.74
712.99	15654.67
713.18	15634.19
713.36	15531.80
713.54	15687.44
713.73	15626.00
713.91	15396.63
714.10	15521.56
714.28	15458.07
714.47	15656.72
714.65	15134.49
714.84	15173.40
715.02	15095.58
715.21	14888.73
715.39	14731.04
715.58	14919.45
715.76	14776.09
715.94	14886.68
716.13	14812.96
716.31	14866.21
716.50	14917.40
716.68	15269.66
716.87	15300.37
717.05	15431.44
717.24	15316.76
717.42	15433.49
717.60	15357.72
717.79	15431.44
717.97	15453.97
718.16	15357.72
718.34	15646.48
718.53	15431.44
718.71	15288.09
718.89	15339.29
719.08	15111.96
719.26	15134.49
719.45	15107.87
719.63	15124.25
719.82	14980.89
720.00	15109.91
720.18	15079.19
720.37	15062.81
720.55	15132.44
720.74	15044.38
720.92	14995.23
721.10	15286.04
721.29	14774.05
721.47	15099.67
721.66	15032.09
721.84	15359.77
722.02	14948.12
722.21	15294.23
722.39	14862.11
722.58	15105.82
722.76	15040.28
722.94	15157.02
723.13	15066.91
723.31	14921.50
723.50	14733.09
723.68	15046.43
723.86	14798.62
724.05	15048.47
724.23	15474.45
724.41	15202.07
724.60	15361.81
724.78	15515.41
724.97	15361.81
725.15	15349.53
725.33	15185.69
725.52	15324.95
725.70	15290.13
725.88	15036.19
726.07	15095.58
726.25	15410.96
726.44	15234.84
726.62	15384.34
726.80	15384.34
726.99	15382.29
727.17	15329.05
727.35	15404.82
727.54	15597.33
727.72	15496.98
727.90	15327.00
728.09	15666.96
728.27	15429.40
728.45	15703.82
728.64	15636.24
728.82	15746.83
729.00	15591.19
729.19	16002.83
729.37	15789.84
729.55	15978.25
729.74	16142.09
729.92	16609.03
730.10	16461.57
730.29	16795.39
730.47	16574.21
730.65	16750.34
730.84	16314.12
731.02	16570.12
731.20	16178.95
731.39	16234.25
731.57	16273.16
731.75	16252.68
731.94	16246.54
732.12	16723.71
732.30	16271.11
732.49	16563.97
732.67	16355.08
732.85	16578.31
733.03	16176.91
733.22	16529.16
733.40	16525.06
733.58	16690.95
733.77	16224.01
733.95	16412.42
734.13	16465.67
734.32	16191.24
734.50	16176.91
734.68	16574.21
734.86	16613.12
735.05	16692.99
735.23	16600.83
735.41	16316.17
735.60	16500.48
735.78	16379.65
735.96	16140.04
736.14	16260.87
736.33	16199.43
736.51	16000.78
736.69	15945.48
736.87	15963.92
737.06	15912.72
737.24	15906.57
737.42	15650.58
737.61	16248.58
737.79	16199.43
737.97	16418.57
738.15	16676.61
738.34	16451.33
738.52	16627.46
738.70	16404.23
738.88	16322.31
739.07	16312.07
739.25	15671.06
739.43	16002.83
739.61	15685.39
739.80	15441.68
739.98	15361.81
740.16	15652.63
740.34	15245.08
740.52	15435.54
740.71	15181.59
740.89	15392.53
741.07	15423.25
741.25	15630.10
741.44	15603.47
741.62	15869.71
741.80	15355.67
741.98	15615.76
742.17	15292.18
742.35	15503.12
742.53	15101.72
742.71	15380.25
742.89	15058.71
743.08	14991.13
743.26	15216.41
743.44	15066.91
743.62	15087.39
743.80	14927.64
743.99	14882.59
744.17	14876.44
744.35	14997.28
744.53	14921.50
744.71	14819.10
744.90	15226.65
745.08	15036.19
745.26	14995.23
745.44	15021.85
745.62	14974.75
745.81	14962.46
745.99	14991.13
746.17	14651.17
746.35	15218.46
746.53	14989.08
746.72	15142.68
746.90	14683.94
747.08	15021.85
747.26	14946.08
747.44	14862.11
747.62	14679.84
747.81	14839.58
747.99	14815.01
748.17	14917.40
748.35	14941.98
748.53	15157.02
748.71	15339.29
748.90	15507.22
749.08	15406.87
749.26	15568.66
749.44	15380.25
749.62	15580.95
749.80	15187.74
749.99	15482.64
750.17	15212.31
750.35	15253.27
750.53	15277.85
750.71	15376.15
750.89	15390.49
751.07	15193.88
751.26	15071.00
751.44	15200.02
751.62	15152.92
751.80	15025.95
751.98	15157.02
752.16	15255.32
752.34	15281.94
752.53	15136.54
752.71	15200.02
752.89	15314.71
753.07	15357.72
753.25	15257.37
753.43	15150.87
753.61	14964.51
753.79	15343.38
753.98	15480.60
754.16	15187.74
754.34	15384.34
754.52	15621.91
754.70	15779.60
754.88	15822.61
755.06	15605.52
755.24	16242.44
755.42	16285.45
755.60	16525.06
755.79	16776.96
755.97	16942.85
756.15	17381.11
756.33	17377.01
756.51	18097.90
756.69	17952.49
756.87	18026.22
757.05	17813.23
757.23	18179.82
757.41	17534.71
757.60	17428.21
757.78	17460.98
757.96	17473.27
758.14	17641.20
758.32	17680.11
758.50	17913.58
758.68	17567.48
758.86	17882.86
759.04	17821.42
759.22	17780.46
759.40	18466.53
759.58	18564.84
759.76	18710.24
759.94	18994.91
760.13	19042.01
760.31	18867.94
760.49	18718.43
760.67	18917.09
760.85	19087.07
761.03	19070.68
761.21	19105.50
761.39	18910.94
761.57	19162.84
761.75	18863.84
761.93	19551.96
762.11	19269.34
762.29	19523.29
762.47	19465.94
762.65	19709.65
762.83	19554.01
763.01	19797.71
763.19	19875.54
763.37	20737.73
763.55	20815.55
763.73	21057.21
763.91	21135.04
764.09	21130.94
764.27	21149.37
764.45	20911.81
764.64	21061.31
764.82	20594.37
765.00	20475.59
765.18	20485.83
765.36	19711.70
765.54	19834.58
765.72	19828.43
765.90	19945.17
766.08	19226.33
766.26	19730.13
766.44	19572.44
766.62	19951.31
766.80	19867.34
766.98	20127.44
767.16	19889.87
767.34	20389.58
767.52	20365.00
767.70	20649.67
767.88	20637.38
768.06	20375.24
768.24	20143.82
768.42	20086.48
768.60	20195.02
768.78	20113.10
768.96	19631.83
769.13	19623.64
769.31	19402.46
769.49	19547.86
769.67	19597.01
769.85	19781.33
770.03	19662.55
770.21	19656.40
770.39	19390.17
770.57	19437.27
770.75	19164.89
770.93	19109.60
771.11	19039.97
771.29	19230.43
771.47	18888.42
771.65	18972.38
771.83	18388.71
772.01	18800.35
772.19	18902.75
772.37	18677.48
772.55	18308.84
772.73	18640.61
772.91	18274.03
773.09	18425.57
773.27	18235.11
773.44	17923.82
773.62	17741.55
773.80	18040.56
773.98	17944.30
774.16	18013.93
774.34	17913.58
774.52	17921.77
774.70	18104.04
774.88	17690.35
775.06	17792.75
775.24	17780.46
775.42	17792.75
775.60	17530.61
775.78	17518.32
775.95	17393.40
776.13	17215.23
776.31	17379.06
776.49	17116.92
776.67	17395.45
776.85	17364.73
777.03	17327.86
777.21	17106.68
777.39	16987.90
777.57	17186.55
777.75	17069.82
777.92	17321.72
778.10	17004.28
778.28	16879.36
778.46	17221.37
778.64	16717.57
778.82	16994.04
779.00	16844.54
779.18	16537.35
779.36	16520.96
779.53	16854.78
779.71	16815.87
779.89	17014.52
780.07	16983.80
780.25	17346.30
780.43	17166.07
780.61	17444.60
780.79	17268.47
780.96	17471.22
781.14	16975.61
781.32	17022.72
781.50	16768.77
781.68	17067.77
781.86	16596.74
782.04	16899.84
782.21	16637.70
782.39	16613.12
782.57	16754.43
782.75	16432.90
782.93	16596.74
783.11	16269.06
783.29	16297.74
783.46	16133.90
783.64	15855.37
783.82	15746.83
784.00	15988.49
784.18	16058.12
784.36	16211.72
784.54	16475.91
784.71	16144.14
784.89	16391.94
785.07	16107.27
785.25	16451.33
785.43	15998.73
785.60	16125.71
785.78	15916.81
785.96	15857.42
786.14	15808.27
786.32	15884.05
786.50	15771.41
786.67	15810.32
786.85	15968.01
787.03	15914.77
787.21	16142.09
787.39	16172.81
787.56	16531.20
787.74	16371.46
787.92	16099.08
788.10	16137.99
788.28	15861.52
788.45	15681.30
788.63	15650.58
788.81	15669.01
788.99	15410.96
789.17	15781.65
789.34	15410.96
789.52	15243.03
789.70	15320.85
789.88	15327.00
790.06	15501.08
790.23	15562.51
790.41	15347.48
790.59	15304.47
790.77	15347.48
790.95	15224.60
791.12	15331.09
791.30	15157.02
791.48	15236.89
791.66	15089.43
791.83	14937.88
792.01	15193.88
792.19	15120.15
792.37	15425.30
792.54	15240.98
792.72	16002.83
792.90	16207.62
793.08	16271.11
793.25	16312.07
793.43	16078.60
793.61	16371.46
793.79	15779.60
793.96	16043.79
794.14	15787.79
794.32	15367.96
794.50	15435.54
794.67	15089.43
794.85	15128.35
795.03	14767.90
795.21	14651.17
795.38	14425.89
795.56	14411.56
795.74	14237.48
795.92	14303.01
796.09	14401.32
796.27	14366.50
796.45	14198.57
796.62	14710.56
796.80	14346.02
796.98	14116.65
797.16	13977.39
797.33	14225.19
797.51	14055.21
797.69	14100.26
797.86	14255.91
798.04	13965.10
798.22	14055.21
798.40	14135.08
798.57	14055.21
798.75	13936.43
798.93	13838.12
799.10	13979.43
799.28	13745.97
799.46	13727.53
799.63	13608.75
799.81	13782.83
799.99	13696.82
800.17	13606.70
800.34	13547.31
800.52	13725.49
800.70	13264.69
800.87	13848.36
801.05	13596.46
801.23	13743.92
801.40	13520.69
801.58	13641.52
801.76	13373.24
801.93	13467.44
802.11	13475.63
802.29	13393.72
802.46	13408.05
802.64	13451.06
802.82	13451.06
802.99	13403.96
803.17	13156.15
803.35	13295.41
803.52	13141.82
803.70	13360.95
803.88	13254.45
804.05	13387.57
804.23	13063.99
804.41	13350.71
804.58	13446.96
804.76	13621.04
804.94	13397.81
805.11	13651.76
805.29	13649.71
805.46	13987.63
805.64	13801.26
805.82	13643.57
805.99	13651.76
806.17	13520.69
806.35	13371.19
806.52	13223.73
806.70	13330.23
806.87	13371.19
807.05	13371.19
807.23	13451.06
807.40	13289.27
807.58	13270.84
807.76	13219.64
807.93	13016.89
808.11	12937.02
808.28	12912.44
808.46	12869.44
808.64	12941.11
808.81	12754.75
808.99	13035.32
809.16	12957.50
809.34	12928.83
809.52	12887.87
809.69	13088.57
809.87	12822.33
810.04	13012.79
810.22	13012.79
810.40	12803.90
810.57	12851.00
810.75	12910.40
810.92	12554.05
811.10	12752.70
811.28	12644.16
811.45	12617.54
811.63	12599.10
811.80	12523.33
811.98	12527.42
812.15	12820.28
812.33	12877.63
812.51	12695.36
812.68	12840.76
812.86	12824.38
813.03	12969.79
813.21	13047.61
813.38	13039.42
813.56	12545.86
813.74	12463.94
813.91	12515.14
814.09	12447.55
814.26	12418.88
814.44	12392.26
814.61	12496.71
814.79	12392.26
814.96	12478.27
815.14	12396.35
815.31	12582.72
815.49	12724.03
815.67	12474.18
815.84	12416.83
816.02	12656.45
816.19	12445.51
816.37	12652.35
816.54	12578.62
816.72	12492.61
816.89	12326.72
817.07	12674.88
817.24	12568.38
817.42	12033.86
817.59	11994.95
817.77	12394.31
817.94	12103.50
818.12	12394.31
818.29	12019.53
818.47	12109.64
818.64	12027.72
818.82	12336.96
818.99	12310.34
819.17	12158.79
819.34	12404.55
819.52	12556.10
819.69	12316.48
819.87	12730.17
820.04	12377.92
820.22	12255.04
820.39	12091.21
820.57	12267.33
820.74	12308.29
820.92	12189.51
821.09	12126.02
821.27	12316.48
821.44	12171.08
821.62	12068.68
821.79	12138.31
821.97	12080.97
822.14	11992.90
822.32	11945.80
822.49	12058.44
822.67	12173.13
822.84	11806.54
823.02	12027.72
823.19	11849.55
823.37	11788.11
823.54	11997.00
823.72	11812.68
823.89	11960.14
824.06	11702.09
824.24	11755.34
824.41	11929.42
824.59	11841.36
824.76	12040.01
824.94	12105.54
825.11	12318.53
825.29	12095.30
825.46	11953.99
825.63	12005.19
825.81	12355.40
825.98	12375.88
826.16	12402.50
826.33	12207.94
826.51	12281.67
826.68	12283.72
826.86	12267.33
827.03	11999.05
827.20	11933.51
827.38	11878.22
827.55	11884.36
827.73	11710.29
827.90	11831.12
828.07	11765.58
828.25	11622.22
828.42	11532.11
828.60	11595.60
828.77	11571.02
828.95	11396.95
829.12	11437.91
829.29	11513.68
829.47	11251.54
829.64	11433.81
829.82	11282.26
829.99	11286.36
830.16	11335.51
830.34	11302.74
830.51	11087.70
830.69	11194.20
830.86	11192.15
831.03	11249.49
831.21	11364.18
831.38	11202.39
831.55	11038.55
831.73	11298.64
831.90	11093.85
832.08	11222.87
832.25	11204.44
832.42	11337.56
832.60	11130.71
832.77	11177.81
832.94	11333.46
833.12	11210.58
833.29	11034.46
833.47	11216.72
833.64	11218.77
833.81	11079.51
833.99	11001.69
834.16	11261.78
834.33	11200.34
834.51	10835.80
834.68	11210.58
834.85	11120.47
835.03	10995.54
835.20	11147.09
835.37	10927.96
835.55	10837.85
835.72	10784.60
835.90	10936.15
836.07	10848.09
836.24	10774.36
836.42	10696.54
836.59	10932.06
836.76	10827.61
836.94	10841.95
837.11	10602.33
837.28	10862.43
837.46	10723.16
837.63	10823.51
837.80	10706.78
837.97	10690.40
838.15	10602.33
838.32	10792.80
838.49	10762.08
838.67	10745.69
838.84	10737.50
839.01	10686.30
839.19	10852.19
839.36	10522.46
839.53	10614.62
839.71	10755.93
839.88	10592.09
840.05	10751.84
840.22	10714.97
840.40	10858.33
840.57	10520.42
840.74	10936.15
840.92	10526.56
841.09	10631.01
841.26	10454.88
841.43	10518.37
841.61	10602.33
841.78	10596.19
841.95	10743.64
842.13	10641.25
842.30	10461.02
842.47	10657.63
842.64	10532.70
842.82	10608.48
842.99	10325.86
843.16	10678.11
843.34	10569.57
843.51	10610.53
843.68	10448.74
843.85	10524.51
844.03	10256.23
844.20	10456.93
844.37	10245.99
844.54	10446.69
844.72	10256.23
844.89	10372.96
845.06	10325.86
845.23	10356.58
845.41	10325.86
845.58	10329.95
845.75	10436.45
845.92	10415.97
846.10	10389.35
846.27	10305.38
846.44	10481.50
846.61	10207.08
846.78	10274.66
846.96	10166.12
847.13	10323.81
847.30	10164.07
847.47	10569.57
847.65	10360.67
847.82	10051.43
847.99	10338.15
848.16	10270.56
848.33	10200.93
848.51	10016.62
848.68	10010.47
848.85	10178.40
849.02	10399.59
849.19	9901.93
849.37	10153.83
849.54	9951.08
849.71	10207.08
849.88	10080.10
850.05	9924.46
850.23	10100.58
850.40	10164.07
850.57	10090.34
850.74	10125.16
850.91	10102.63
851.09	10049.38
851.26	10114.92
851.43	10045.29
851.60	10108.77
851.77	10098.53
851.95	10047.33
852.12	10149.73
852.29	10008.42
852.46	10035.05
852.63	9930.60
852.80	9934.70
852.98	9965.42
853.15	9992.04
853.32	9901.93
853.49	9865.07
853.66	9922.41
853.83	9955.18
854.01	9928.55
854.18	9787.24
854.35	10014.57
854.52	9758.57
854.69	9885.55
854.86	9813.87
855.03	9705.32
855.21	9873.26
855.38	9838.44
855.55	9846.63
855.72	9795.43
855.89	9760.62
856.06	9598.83
856.23	9953.13
856.41	9656.17
856.58	9777.00
856.75	9588.59
856.92	9707.37
857.09	9576.30
857.26	9492.34
857.43	9508.72
857.60	9514.86
857.78	9420.66
857.95	9822.06
858.12	9426.80
858.29	9670.51
858.46	9561.97
858.63	9574.25
858.80	9361.27
858.97	9369.46
859.14	9457.52
859.32	9637.74
859.49	9445.23
859.66	9355.12
859.83	9502.58
860.00	9383.79
860.17	9308.02
860.34	9187.19
860.51	9465.71
860.68	9316.21
860.85	9490.29
861.02	9301.87
861.20	9248.63
861.37	9316.21
861.54	9197.43
861.71	9324.40
861.88	9336.69
862.05	9125.75
862.22	9353.07
862.39	9371.50
862.56	9361.27
862.73	9107.32
862.90	9176.95
863.07	9041.78
863.24	8998.77
863.41	9088.89
863.59	8884.09
863.76	8927.10
863.93	8976.25
864.10	9131.89
864.27	8994.68
864.44	9023.35
864.61	8953.72
864.78	8814.46
864.95	8775.55
865.12	8902.52
865.29	8791.93
865.46	8984.44
865.63	8855.42
865.80	8884.09
865.97	8814.46
866.14	8898.42
866.31	8853.37
866.48	8935.29
866.65	8689.53
866.82	8757.11
866.99	8599.42
867.16	8791.93
867.33	8560.51
867.50	8681.34
867.67	8642.43
867.84	8691.58
868.01	8603.52
868.18	8507.26
868.35	8642.43
868.52	8437.63
868.69	8304.51
868.86	8384.38
869.03	8494.97
869.20	8449.92
869.37	8275.84
869.54	8394.62
869.71	8339.33
869.88	8314.75
870.05	8380.29
870.22	8384.38
870.39	8200.07
870.56	8298.37
870.73	8277.89
870.90	8230.79
871.07	8148.87
871.24	8222.59
871.41	7997.32
871.58	8136.58
871.75	8040.33
871.92	8263.55
872.09	7997.32
872.26	7896.97
872.43	7925.64
872.60	7954.31
872.77	7913.35
872.94	8007.56
873.11	7899.02
873.28	7878.54
873.45	7772.04
873.62	7810.95
873.79	7706.51
873.96	7591.82
874.13	7595.92
874.30	7567.24
874.47	7786.38
874.64	7679.88
874.80	7726.99
874.97	7720.84
875.14	7634.83
875.31	7638.92
875.48	7505.81
875.65	7630.73
875.82	7327.63
875.99	7491.47
876.16	7290.77
876.33	7548.81
876.50	7444.37
876.67	7303.06
876.84	7376.78
877.01	7350.16
877.17	7393.17
877.34	7370.64
877.51	7333.78
877.68	7171.99
877.85	7212.95
878.02	7286.67
878.19	7176.08
878.36	7264.15
878.53	7065.49
878.70	7194.51
878.87	7143.32
879.03	7122.84
879.20	7165.84
879.37	6969.24
879.54	6993.81
879.71	7098.26
879.88	6995.86
880.05	7053.20
880.22	6915.99
880.39	6864.79
880.55	6774.68
880.72	6907.80
880.89	6678.43
881.06	6725.53
881.23	6799.26
881.40	6659.99
881.57	6569.88
881.74	6565.79
881.90	6600.60
882.07	6602.65
882.24	6477.73
882.41	6526.88
882.58	6416.29
882.75	6498.20
882.92	6471.58
883.08	6291.36
883.25	6305.70
883.42	6283.17
883.59	6379.42
883.76	6297.50
883.93	6358.94
884.09	6229.92
884.26	6305.70
884.43	6162.34
884.60	6174.63
884.77	6170.53
884.94	6213.54
885.10	5986.21
885.27	6086.56
885.44	5990.31
885.61	5971.88
885.78	5961.64
885.95	5959.59
886.11	5963.68
886.28	5844.90
886.45	5832.62
886.62	5834.66
886.79	5943.21
886.96	5607.34
887.12	5664.68
887.29	5910.44
887.46	5703.59
887.63	5642.15
887.80	5560.24
887.96	5713.83
888.13	5703.59
888.30	5509.04
888.47	5509.04
888.64	5281.71
888.80	5517.23
888.97	5359.53
889.14	5357.49
889.31	5339.05
889.47	5238.70
889.64	5330.86
889.81	5310.38
889.98	5181.36
890.15	5152.69
890.31	5160.88
890.48	5160.88
890.65	5160.88
890.82	5160.88
890.98	5160.88
891.15	5160.88
>>>>>End Processed Spectral Data<<<<<
