SpectraSuite Data File
++++++++++++++++++++++++++++++++++++
Date: Fri Jan 24 17:04:09 MST 2020
User: Molly
Dark Spectrum Present: Yes
Reference Spectrum Present: Yes
Number of Sampled Component Spectra: 1
Spectrometers: USB4E03280
Integration Time (usec): 32000 (USB4E03280)
Spectra Averaged: 1 (USB4E03280)
Boxcar Smoothing: 0 (USB4E03280)
Correct for Electrical Dark: No (USB4E03280)
Strobe/Lamp Enabled: Yes (USB4E03280)
Correct for Detector Non-linearity: No (USB4E03280)
Correct for Stray Light: No (USB4E03280)
Number of Pixels in Processed Spectrum: 3648
>>>>>Begin Processed Spectral Data<<<<<
177.66	1193.97
177.88	1193.97
178.10	1193.97
178.32	1214.45
178.54	1220.59
178.76	1271.79
178.98	1284.08
179.19	1232.88
179.41	1255.40
179.63	1269.74
179.85	1208.30
180.07	1179.63
180.29	1239.02
180.51	1249.26
180.72	1183.73
180.94	1167.34
181.16	1198.06
181.38	1249.26
181.60	1206.25
181.82	1187.82
182.04	1185.77
182.25	1198.06
182.47	1234.93
182.69	1191.92
182.91	1216.49
183.13	1175.53
183.35	1265.64
183.56	1196.01
183.78	1177.58
184.00	1204.21
184.22	1232.88
184.44	1257.45
184.66	1204.21
184.87	1251.31
185.09	1224.69
185.31	1157.10
185.53	1249.26
185.75	1183.73
185.97	1193.97
186.18	1241.07
186.40	1245.16
186.62	1279.98
186.84	1247.21
187.06	1208.30
187.28	1200.11
187.49	1292.27
187.71	1177.58
187.93	1204.21
188.15	1218.54
188.37	1269.74
188.59	1277.93
188.80	1179.63
189.02	1265.64
189.24	1300.46
189.46	1232.88
189.68	1265.64
189.89	1185.77
190.11	1185.77
190.33	1191.92
190.55	1253.36
190.77	1210.35
190.98	1224.69
191.20	1179.63
191.42	1236.97
191.64	1220.59
191.86	1204.21
192.07	1273.84
192.29	1142.77
192.51	1269.74
192.73	1179.63
192.95	1269.74
193.16	1220.59
193.38	1304.56
193.60	1216.49
193.82	1193.97
194.04	1286.12
194.25	1185.77
194.47	1208.30
194.69	1187.82
194.91	1257.45
195.13	1232.88
195.34	1189.87
195.56	1261.55
195.78	1218.54
196.00	1335.28
196.22	1241.07
196.43	1196.01
196.65	1216.49
196.87	1220.59
197.09	1232.88
197.30	1216.49
197.52	1234.93
197.74	1284.08
197.96	1187.82
198.18	1230.83
198.39	1310.70
198.61	1202.16
198.83	1226.73
199.05	1220.59
199.26	1243.12
199.48	1224.69
199.70	1230.83
199.92	1247.21
200.13	1198.06
200.35	1224.69
200.57	1206.25
200.79	1187.82
201.00	1288.17
201.22	1206.25
201.44	1251.31
201.66	1308.65
201.88	1222.64
202.09	1214.45
202.31	1290.22
202.53	1294.32
202.75	1247.21
202.96	1257.45
203.18	1228.78
203.40	1206.25
203.62	1171.44
203.83	1273.84
204.05	1234.93
204.27	1208.30
204.49	1218.54
204.70	1169.39
204.92	1255.40
205.14	1183.73
205.35	1220.59
205.57	1222.64
205.79	1214.45
206.01	1191.92
206.22	1255.40
206.44	1200.11
206.66	1284.08
206.88	1271.79
207.09	1290.22
207.31	1251.31
207.53	1259.50
207.75	1220.59
207.96	1273.84
208.18	1249.26
208.40	1175.53
208.61	1308.65
208.83	1234.93
209.05	1220.59
209.27	1271.79
209.48	1236.97
209.70	1255.40
209.92	1214.45
210.14	1304.56
210.35	1292.27
210.57	1263.60
210.79	1228.78
211.00	1302.51
211.22	1232.88
211.44	1142.77
211.66	1251.31
211.87	1251.31
212.09	1214.45
212.31	1241.07
212.52	1220.59
212.74	1226.73
212.96	1214.45
213.17	1273.84
213.39	1220.59
213.61	1255.40
213.83	1206.25
214.04	1212.40
214.26	1218.54
214.48	1239.02
214.69	1196.01
214.91	1198.06
215.13	1218.54
215.34	1179.63
215.56	1183.73
215.78	1265.64
216.00	1306.60
216.21	1220.59
216.43	1202.16
216.65	1294.32
216.86	1204.21
217.08	1271.79
217.30	1284.08
217.51	1148.91
217.73	1232.88
217.95	1216.49
218.16	1251.31
218.38	1222.64
218.60	1265.64
218.81	1204.21
219.03	1243.12
219.25	1245.16
219.46	1290.22
219.68	1169.39
219.90	1253.36
220.11	1300.46
220.33	1206.25
220.55	1146.86
220.76	1206.25
220.98	1261.55
221.20	1202.16
221.41	1265.64
221.63	1234.93
221.85	1228.78
222.06	1298.41
222.28	1288.17
222.50	1175.53
222.71	1228.78
222.93	1261.55
223.15	1232.88
223.36	1224.69
223.58	1255.40
223.80	1228.78
224.01	1218.54
224.23	1232.88
224.45	1232.88
224.66	1243.12
224.88	1169.39
225.10	1193.97
225.31	1210.35
225.53	1218.54
225.75	1216.49
225.96	1234.93
226.18	1222.64
226.39	1222.64
226.61	1253.36
226.83	1257.45
227.04	1236.97
227.26	1271.79
227.48	1282.03
227.69	1214.45
227.91	1255.40
228.13	1282.03
228.34	1251.31
228.56	1245.16
228.77	1208.30
228.99	1249.26
229.21	1234.93
229.42	1185.77
229.64	1179.63
229.86	1255.40
230.07	1286.12
230.29	1249.26
230.50	1226.73
230.72	1267.69
230.94	1253.36
231.15	1275.88
231.37	1251.31
231.58	1257.45
231.80	1210.35
232.02	1243.12
232.23	1282.03
232.45	1261.55
232.67	1202.16
232.88	1234.93
233.10	1267.69
233.31	1204.21
233.53	1255.40
233.75	1173.49
233.96	1212.40
234.18	1185.77
234.39	1148.91
234.61	1216.49
234.83	1310.70
235.04	1218.54
235.26	1243.12
235.47	1220.59
235.69	1177.58
235.91	1290.22
236.12	1265.64
236.34	1306.60
236.55	1185.77
236.77	1339.37
236.99	1196.01
237.20	1236.97
237.42	1130.48
237.63	1263.60
237.85	1200.11
238.06	1275.88
238.28	1239.02
238.50	1241.07
238.71	1148.91
238.93	1259.50
239.14	1288.17
239.36	1259.50
239.58	1247.21
239.79	1142.77
240.01	1206.25
240.22	1273.84
240.44	1271.79
240.65	1214.45
240.87	1255.40
241.09	1210.35
241.30	1181.68
241.52	1230.83
241.73	1230.83
241.95	1196.01
242.16	1277.93
242.38	1187.82
242.59	1193.97
242.81	1175.53
243.03	1224.69
243.24	1308.65
243.46	1183.73
243.67	1144.81
243.89	1292.27
244.10	1228.78
244.32	1267.69
244.53	1232.88
244.75	1165.29
244.97	1212.40
245.18	1214.45
245.40	1234.93
245.61	1175.53
245.83	1208.30
246.04	1261.55
246.26	1241.07
246.47	1222.64
246.69	1177.58
246.90	1267.69
247.12	1259.50
247.34	1206.25
247.55	1179.63
247.77	1230.83
247.98	1187.82
248.20	1224.69
248.41	1210.35
248.63	1191.92
248.84	1210.35
249.06	1300.46
249.27	1204.21
249.49	1167.34
249.70	1169.39
249.92	1282.03
250.13	1228.78
250.35	1257.45
250.56	1265.64
250.78	1255.40
251.00	1187.82
251.21	1218.54
251.43	1243.12
251.64	1208.30
251.86	1183.73
252.07	1247.21
252.29	1269.74
252.50	1206.25
252.72	1273.84
252.93	1191.92
253.15	1296.36
253.36	1257.45
253.58	1228.78
253.79	1269.74
254.01	1234.93
254.22	1232.88
254.44	1218.54
254.65	1204.21
254.87	1243.12
255.08	1198.06
255.30	1259.50
255.51	1224.69
255.73	1232.88
255.94	1187.82
256.16	1232.88
256.37	1183.73
256.59	1294.32
256.80	1267.69
257.02	1181.68
257.23	1239.02
257.45	1200.11
257.66	1286.12
257.88	1234.93
258.09	1185.77
258.31	1159.15
258.52	1204.21
258.74	1208.30
258.95	1265.64
259.16	1204.21
259.38	1214.45
259.59	1337.32
259.81	1177.58
260.02	1214.45
260.24	1210.35
260.45	1337.32
260.67	1212.40
260.88	1255.40
261.10	1298.41
261.31	1232.88
261.53	1189.87
261.74	1241.07
261.96	1257.45
262.17	1193.97
262.39	1279.98
262.60	1216.49
262.81	1279.98
263.03	1191.92
263.24	1167.34
263.46	1234.93
263.67	1257.45
263.89	1228.78
264.10	1210.35
264.32	1247.21
264.53	1236.97
264.75	1210.35
264.96	1279.98
265.17	1294.32
265.39	1267.69
265.60	1265.64
265.82	1181.68
266.03	1282.03
266.25	1298.41
266.46	1173.49
266.68	1224.69
266.89	1253.36
267.10	1245.16
267.32	1234.93
267.53	1286.12
267.75	1202.16
267.96	1267.69
268.18	1298.41
268.39	1222.64
268.61	1245.16
268.82	1257.45
269.03	1206.25
269.25	1243.12
269.46	1228.78
269.68	1286.12
269.89	1214.45
270.11	1208.30
270.32	1302.51
270.53	1206.25
270.75	1331.18
270.96	1165.29
271.18	1175.53
271.39	1243.12
271.60	1284.08
271.82	1243.12
272.03	1187.82
272.25	1234.93
272.46	1204.21
272.68	1224.69
272.89	1228.78
273.10	1206.25
273.32	1230.83
273.53	1265.64
273.75	1271.79
273.96	1245.16
274.17	1277.93
274.39	1226.73
274.60	1232.88
274.82	1275.88
275.03	1243.12
275.24	1222.64
275.46	1251.31
275.67	1286.12
275.89	1187.82
276.10	1265.64
276.31	1175.53
276.53	1257.45
276.74	1198.06
276.96	1183.73
277.17	1222.64
277.38	1208.30
277.60	1298.41
277.81	1234.93
278.02	1222.64
278.24	1308.65
278.45	1265.64
278.67	1183.73
278.88	1222.64
279.09	1216.49
279.31	1226.73
279.52	1251.31
279.73	1251.31
279.95	1208.30
280.16	1234.93
280.38	1208.30
280.59	1259.50
280.80	1196.01
281.02	1204.21
281.23	1212.40
281.44	1181.68
281.66	1208.30
281.87	1193.97
282.09	1216.49
282.30	1243.12
282.51	1271.79
282.73	1312.75
282.94	1247.21
283.15	1273.84
283.37	1286.12
283.58	1181.68
283.79	1210.35
284.01	1257.45
284.22	1245.16
284.43	1277.93
284.65	1245.16
284.86	1204.21
285.07	1263.60
285.29	1196.01
285.50	1179.63
285.72	1169.39
285.93	1234.93
286.14	1191.92
286.36	1196.01
286.57	1183.73
286.78	1193.97
287.00	1228.78
287.21	1196.01
287.42	1214.45
287.64	1220.59
287.85	1261.55
288.06	1265.64
288.28	1171.44
288.49	1224.69
288.70	1253.36
288.92	1159.15
289.13	1343.47
289.34	1214.45
289.56	1243.12
289.77	1212.40
289.98	1236.97
290.19	1204.21
290.41	1222.64
290.62	1214.45
290.83	1206.25
291.05	1183.73
291.26	1216.49
291.47	1226.73
291.69	1298.41
291.90	1202.16
292.11	1263.60
292.33	1263.60
292.54	1214.45
292.75	1189.87
292.97	1255.40
293.18	1255.40
293.39	1271.79
293.60	1284.08
293.82	1241.07
294.03	1239.02
294.24	1273.84
294.46	1257.45
294.67	1282.03
294.88	1261.55
295.10	1234.93
295.31	1169.39
295.52	1241.07
295.73	1193.97
295.95	1208.30
296.16	1269.74
296.37	1232.88
296.59	1222.64
296.80	1241.07
297.01	1273.84
297.22	1222.64
297.44	1257.45
297.65	1267.69
297.86	1232.88
298.08	1163.25
298.29	1171.44
298.50	1243.12
298.71	1212.40
298.93	1189.87
299.14	1220.59
299.35	1257.45
299.56	1288.17
299.78	1202.16
299.99	1206.25
300.20	1230.83
300.42	1204.21
300.63	1214.45
300.84	1218.54
301.05	1218.54
301.27	1243.12
301.48	1126.38
301.69	1255.40
301.90	1255.40
302.12	1179.63
302.33	1259.50
302.54	1290.22
302.75	1224.69
302.97	1298.41
303.18	1232.88
303.39	1153.01
303.60	1200.11
303.82	1222.64
304.03	1249.26
304.24	1222.64
304.45	1292.27
304.67	1269.74
304.88	1247.21
305.09	1206.25
305.30	1157.10
305.52	1228.78
305.73	1239.02
305.94	1226.73
306.15	1204.21
306.37	1236.97
306.58	1320.94
306.79	1222.64
307.00	1234.93
307.22	1208.30
307.43	1239.02
307.64	1202.16
307.85	1220.59
308.06	1271.79
308.28	1245.16
308.49	1245.16
308.70	1273.84
308.91	1284.08
309.13	1271.79
309.34	1228.78
309.55	1253.36
309.76	1269.74
309.97	1255.40
310.19	1226.73
310.40	1234.93
310.61	1193.97
310.82	1222.64
311.04	1239.02
311.25	1230.83
311.46	1214.45
311.67	1273.84
311.88	1294.32
312.10	1228.78
312.31	1220.59
312.52	1218.54
312.73	1261.55
312.94	1177.58
313.16	1210.35
313.37	1224.69
313.58	1214.45
313.79	1212.40
314.00	1189.87
314.22	1261.55
314.43	1214.45
314.64	1253.36
314.85	1271.79
315.06	1292.27
315.27	1136.62
315.49	1196.01
315.70	1187.82
315.91	1279.98
316.12	1216.49
316.33	1277.93
316.55	1202.16
316.76	1204.21
316.97	1230.83
317.18	1273.84
317.39	1208.30
317.60	1318.89
317.82	1316.84
318.03	1214.45
318.24	1236.97
318.45	1253.36
318.66	1204.21
318.88	1263.60
319.09	1259.50
319.30	1236.97
319.51	1150.96
319.72	1224.69
319.93	1210.35
320.15	1284.08
320.36	1200.11
320.57	1198.06
320.78	1187.82
320.99	1210.35
321.20	1228.78
321.41	1226.73
321.63	1173.49
321.84	1239.02
322.05	1214.45
322.26	1296.36
322.47	1257.45
322.68	1214.45
322.90	1279.98
323.11	1218.54
323.32	1202.16
323.53	1257.45
323.74	1298.41
323.95	1189.87
324.16	1339.37
324.38	1261.55
324.59	1171.44
324.80	1173.49
325.01	1220.59
325.22	1239.02
325.43	1277.93
325.64	1255.40
325.85	1220.59
326.07	1204.21
326.28	1216.49
326.49	1251.31
326.70	1228.78
326.91	1290.22
327.12	1232.88
327.33	1245.16
327.54	1292.27
327.76	1153.01
327.97	1294.32
328.18	1271.79
328.39	1228.78
328.60	1230.83
328.81	1243.12
329.02	1247.21
329.23	1261.55
329.45	1265.64
329.66	1230.83
329.87	1257.45
330.08	1279.98
330.29	1216.49
330.50	1224.69
330.71	1245.16
330.92	1259.50
331.13	1236.97
331.34	1224.69
331.56	1320.94
331.77	1259.50
331.98	1193.97
332.19	1314.80
332.40	1267.69
332.61	1196.01
332.82	1208.30
333.03	1267.69
333.24	1251.31
333.45	1163.25
333.67	1243.12
333.88	1167.34
334.09	1198.06
334.30	1249.26
334.51	1214.45
334.72	1191.92
334.93	1282.03
335.14	1216.49
335.35	1220.59
335.56	1265.64
335.77	1245.16
335.98	1251.31
336.19	1232.88
336.41	1220.59
336.62	1200.11
336.83	1224.69
337.04	1224.69
337.25	1193.97
337.46	1257.45
337.67	1210.35
337.88	1200.11
338.09	1249.26
338.30	1247.21
338.51	1208.30
338.72	1228.78
338.93	1255.40
339.14	1273.84
339.35	1212.40
339.57	1173.49
339.78	1257.45
339.99	1247.21
340.20	1236.97
340.41	1236.97
340.62	1245.16
340.83	1269.74
341.04	1200.11
341.25	1239.02
341.46	1202.16
341.67	1243.12
341.88	1200.11
342.09	1187.82
342.30	1212.40
342.51	1218.54
342.72	1179.63
342.93	1226.73
343.14	1230.83
343.35	1191.92
343.56	1196.01
343.77	1296.36
343.98	1230.83
344.19	1204.21
344.41	1181.68
344.62	1196.01
344.83	1230.83
345.04	1220.59
345.25	1234.93
345.46	1259.50
345.67	1275.88
345.88	1204.21
346.09	1210.35
346.30	1234.93
346.51	1239.02
346.72	1228.78
346.93	1220.59
347.14	1210.35
347.35	1245.16
347.56	1236.97
347.77	1212.40
347.98	1259.50
348.19	1318.89
348.40	1267.69
348.61	1279.98
348.82	1284.08
349.03	1257.45
349.24	1198.06
349.45	1155.05
349.66	1277.93
349.87	1148.91
350.08	1251.31
350.29	1279.98
350.50	1249.26
350.71	1261.55
350.92	1232.88
351.13	1226.73
351.34	1279.98
351.55	1212.40
351.76	1277.93
351.97	1245.16
352.18	1298.41
352.39	1277.93
352.60	1267.69
352.81	1253.36
353.02	1253.36
353.23	1118.19
353.44	1286.12
353.65	1191.92
353.86	1243.12
354.07	1200.11
354.28	1216.49
354.49	1212.40
354.70	1185.77
354.90	1167.34
355.11	1222.64
355.32	1294.32
355.53	1245.16
355.74	1177.58
355.95	1249.26
356.16	1253.36
356.37	1216.49
356.58	1253.36
356.79	1214.45
357.00	1263.60
357.21	1216.49
357.42	1183.73
357.63	1173.49
357.84	1218.54
358.05	1218.54
358.26	1296.36
358.47	1224.69
358.68	1255.40
358.89	1222.64
359.10	1282.03
359.31	1216.49
359.52	1232.88
359.73	1165.29
359.93	1277.93
360.14	1265.64
360.35	1179.63
360.56	1220.59
360.77	1204.21
360.98	1322.99
361.19	1210.35
361.40	1343.47
361.61	1284.08
361.82	1236.97
362.03	1251.31
362.24	1259.50
362.45	1179.63
362.66	1249.26
362.87	1173.49
363.07	1206.25
363.28	1294.32
363.49	1259.50
363.70	1189.87
363.91	1232.88
364.12	1171.44
364.33	1282.03
364.54	1275.88
364.75	1169.39
364.96	1277.93
365.17	1253.36
365.38	1130.48
365.58	1210.35
365.79	1206.25
366.00	1298.41
366.21	1251.31
366.42	1177.58
366.63	1167.34
366.84	1226.73
367.05	1224.69
367.26	1200.11
367.47	1208.30
367.67	1236.97
367.88	1112.05
368.09	1236.97
368.30	1269.74
368.51	1232.88
368.72	1263.60
368.93	1249.26
369.14	1267.69
369.35	1263.60
369.56	1261.55
369.76	1234.93
369.97	1249.26
370.18	1204.21
370.39	1263.60
370.60	1253.36
370.81	1259.50
371.02	1224.69
371.23	1189.87
371.43	1208.30
371.64	1234.93
371.85	1159.15
372.06	1253.36
372.27	1212.40
372.48	1241.07
372.69	1247.21
372.90	1183.73
373.10	1183.73
373.31	1265.64
373.52	1232.88
373.73	1271.79
373.94	1253.36
374.15	1290.22
374.36	1183.73
374.56	1167.34
374.77	1261.55
374.98	1163.25
375.19	1249.26
375.40	1185.77
375.61	1228.78
375.82	1206.25
376.02	1226.73
376.23	1263.60
376.44	1210.35
376.65	1202.16
376.86	1271.79
377.07	1277.93
377.28	1206.25
377.48	1198.06
377.69	1204.21
377.90	1210.35
378.11	1196.01
378.32	1210.35
378.53	1241.07
378.73	1169.39
378.94	1314.80
379.15	1208.30
379.36	1253.36
379.57	1306.60
379.78	1269.74
379.98	1191.92
380.19	1245.16
380.40	1241.07
380.61	1167.34
380.82	1277.93
381.03	1251.31
381.23	1214.45
381.44	1196.01
381.65	1202.16
381.86	1150.96
382.07	1302.51
382.27	1230.83
382.48	1245.16
382.69	1234.93
382.90	1214.45
383.11	1179.63
383.32	1241.07
383.52	1335.28
383.73	1200.11
383.94	1253.36
384.15	1181.68
384.36	1306.60
384.56	1259.50
384.77	1251.31
384.98	1249.26
385.19	1273.84
385.40	1230.83
385.60	1259.50
385.81	1189.87
386.02	1255.40
386.23	1196.01
386.43	1222.64
386.64	1222.64
386.85	1206.25
387.06	1230.83
387.27	1224.69
387.47	1204.21
387.68	1273.84
387.89	1257.45
388.10	1155.05
388.31	1228.78
388.51	1224.69
388.72	1224.69
388.93	1212.40
389.14	1245.16
389.34	1239.02
389.55	1212.40
389.76	1230.83
389.97	1273.84
390.18	1150.96
390.38	1271.79
390.59	1265.64
390.80	1275.88
391.01	1257.45
391.21	1269.74
391.42	1236.97
391.63	1277.93
391.84	1343.47
392.04	1245.16
392.25	1214.45
392.46	1249.26
392.67	1230.83
392.87	1249.26
393.08	1228.78
393.29	1236.97
393.50	1247.21
393.70	1183.73
393.91	1222.64
394.12	1265.64
394.33	1189.87
394.53	1273.84
394.74	1232.88
394.95	1181.68
395.16	1204.21
395.36	1234.93
395.57	1325.04
395.78	1185.77
395.99	1263.60
396.19	1271.79
396.40	1259.50
396.61	1212.40
396.81	1261.55
397.02	1261.55
397.23	1271.79
397.44	1228.78
397.64	1245.16
397.85	1202.16
398.06	1236.97
398.27	1255.40
398.47	1208.30
398.68	1212.40
398.89	1187.82
399.09	1265.64
399.30	1245.16
399.51	1261.55
399.72	1220.59
399.92	1189.87
400.13	1214.45
400.34	1245.16
400.54	1179.63
400.75	1298.41
400.96	1271.79
401.17	1265.64
401.37	1212.40
401.58	1206.25
401.79	1191.92
401.99	1275.88
402.20	1253.36
402.41	1306.60
402.61	1239.02
402.82	1101.81
403.03	1234.93
403.24	1245.16
403.44	1257.45
403.65	1208.30
403.86	1193.97
404.06	1267.69
404.27	1210.35
404.48	1267.69
404.68	1228.78
404.89	1275.88
405.10	1275.88
405.30	1179.63
405.51	1304.56
405.72	1212.40
405.92	1216.49
406.13	1234.93
406.34	1241.07
406.54	1239.02
406.75	1271.79
406.96	1204.21
407.16	1267.69
407.37	1210.35
407.58	1157.10
407.78	1253.36
407.99	1275.88
408.20	1253.36
408.40	1271.79
408.61	1218.54
408.82	1175.53
409.02	1253.36
409.23	1157.10
409.44	1282.03
409.64	1220.59
409.85	1183.73
410.06	1241.07
410.26	1259.50
410.47	1200.11
410.68	1234.93
410.88	1230.83
411.09	1216.49
411.30	1212.40
411.50	1255.40
411.71	1308.65
411.91	1214.45
412.12	1247.21
412.33	1204.21
412.53	1253.36
412.74	1259.50
412.95	1185.77
413.15	1200.11
413.36	1204.21
413.57	1214.45
413.77	1279.98
413.98	1275.88
414.18	1245.16
414.39	1218.54
414.60	1177.58
414.80	1210.35
415.01	1251.31
415.22	1241.07
415.42	1177.58
415.63	1200.11
415.83	1292.27
416.04	1193.97
416.25	1204.21
416.45	1249.26
416.66	1261.55
416.86	1177.58
417.07	1206.25
417.28	1208.30
417.48	1255.40
417.69	1175.53
417.89	1196.01
418.10	1206.25
418.31	1183.73
418.51	1198.06
418.72	1277.93
418.92	1234.93
419.13	1226.73
419.34	1189.87
419.54	1183.73
419.75	1236.97
419.95	1218.54
420.16	1249.26
420.37	1173.49
420.57	1232.88
420.78	1236.97
420.98	1249.26
421.19	1228.78
421.40	1275.88
421.60	1224.69
421.81	1245.16
422.01	1247.21
422.22	1292.27
422.42	1169.39
422.63	1279.98
422.84	1169.39
423.04	1187.82
423.25	1224.69
423.45	1167.34
423.66	1279.98
423.86	1234.93
424.07	1224.69
424.28	1191.92
424.48	1191.92
424.69	1167.34
424.89	1267.69
425.10	1255.40
425.30	1277.93
425.51	1171.44
425.72	1236.97
425.92	1200.11
426.13	1183.73
426.33	1257.45
426.54	1269.74
426.74	1220.59
426.95	1310.70
427.15	1239.02
427.36	1228.78
427.56	1214.45
427.77	1218.54
427.98	1185.77
428.18	1220.59
428.39	1216.49
428.59	1273.84
428.80	1204.21
429.00	1241.07
429.21	1300.46
429.41	1245.16
429.62	1177.58
429.82	1257.45
430.03	1257.45
430.23	1216.49
430.44	1179.63
430.65	1259.50
430.85	1124.33
431.06	1204.21
431.26	1161.20
431.47	1224.69
431.67	1185.77
431.88	1249.26
432.08	1208.30
432.29	1245.16
432.49	1224.69
432.70	1185.77
432.90	1265.64
433.11	1345.52
433.31	1196.01
433.52	1230.83
433.72	1310.70
433.93	1191.92
434.13	1226.73
434.34	1245.16
434.54	1175.53
434.75	1275.88
434.95	1179.63
435.16	1239.02
435.36	1236.97
435.57	1220.59
435.77	1255.40
435.98	1312.75
436.18	1286.12
436.39	1210.35
436.59	1261.55
436.80	1267.69
437.00	1249.26
437.21	1228.78
437.41	1228.78
437.62	1157.10
437.82	1224.69
438.03	1275.88
438.23	1173.49
438.44	1261.55
438.64	1214.45
438.85	1198.06
439.05	1243.12
439.25	1187.82
439.46	1208.30
439.66	1310.70
439.87	1140.72
440.07	1171.44
440.28	1222.64
440.48	1239.02
440.69	1232.88
440.89	1218.54
441.10	1181.68
441.30	1253.36
441.51	1277.93
441.71	1249.26
441.92	1212.40
442.12	1241.07
442.32	1228.78
442.53	1267.69
442.73	1153.01
442.94	1257.45
443.14	1249.26
443.35	1204.21
443.55	1257.45
443.76	1279.98
443.96	1206.25
444.16	1234.93
444.37	1167.34
444.57	1251.31
444.78	1286.12
444.98	1236.97
445.19	1228.78
445.39	1230.83
445.60	1249.26
445.80	1306.60
446.00	1236.97
446.21	1214.45
446.41	1153.01
446.62	1220.59
446.82	1234.93
447.03	1273.84
447.23	1226.73
447.43	1261.55
447.64	1269.74
447.84	1243.12
448.05	1220.59
448.25	1136.62
448.45	1267.69
448.66	1251.31
448.86	1206.25
449.07	1243.12
449.27	1187.82
449.48	1267.69
449.68	1167.34
449.88	1230.83
450.09	1191.92
450.29	1228.78
450.50	1249.26
450.70	1206.25
450.90	1171.44
451.11	1222.64
451.31	1245.16
451.52	1177.58
451.72	1224.69
451.92	1220.59
452.13	1296.36
452.33	1206.25
452.54	1220.59
452.74	1269.74
452.94	1224.69
453.15	1204.21
453.35	1239.02
453.55	1249.26
453.76	1224.69
453.96	1275.88
454.17	1261.55
454.37	1267.69
454.57	1251.31
454.78	1222.64
454.98	1234.93
455.19	1241.07
455.39	1175.53
455.59	1236.97
455.80	1202.16
456.00	1267.69
456.20	1173.49
456.41	1198.06
456.61	1224.69
456.81	1173.49
457.02	1196.01
457.22	1224.69
457.43	1185.77
457.63	1236.97
457.83	1222.64
458.04	1216.49
458.24	1249.26
458.44	1226.73
458.65	1204.21
458.85	1220.59
459.05	1163.25
459.26	1230.83
459.46	1251.31
459.66	1273.84
459.87	1236.97
460.07	1243.12
460.27	1286.12
460.48	1284.08
460.68	1230.83
460.88	1165.29
461.09	1253.36
461.29	1175.53
461.49	1216.49
461.70	1210.35
461.90	1202.16
462.10	1202.16
462.31	1267.69
462.51	1257.45
462.71	1179.63
462.92	1230.83
463.12	1230.83
463.32	1200.11
463.53	1306.60
463.73	1277.93
463.93	1175.53
464.14	1218.54
464.34	1189.87
464.54	1167.34
464.75	1202.16
464.95	1222.64
465.15	1255.40
465.36	1214.45
465.56	1226.73
465.76	1214.45
465.96	1191.92
466.17	1212.40
466.37	1236.97
466.57	1222.64
466.78	1216.49
466.98	1202.16
467.18	1234.93
467.39	1234.93
467.59	1257.45
467.79	1224.69
467.99	1204.21
468.20	1212.40
468.40	1241.07
468.60	1202.16
468.81	1249.26
469.01	1308.65
469.21	1181.68
469.41	1327.08
469.62	1290.22
469.82	1243.12
470.02	1222.64
470.23	1296.36
470.43	1271.79
470.63	1206.25
470.83	1187.82
471.04	1216.49
471.24	1310.70
471.44	1228.78
471.65	1206.25
471.85	1253.36
472.05	1222.64
472.25	1265.64
472.46	1257.45
472.66	1175.53
472.86	1171.44
473.06	1206.25
473.27	1218.54
473.47	1257.45
473.67	1243.12
473.87	1241.07
474.08	1275.88
474.28	1292.27
474.48	1329.13
474.68	1316.84
474.89	1204.21
475.09	1267.69
475.29	1253.36
475.49	1216.49
475.70	1196.01
475.90	1316.84
476.10	1208.30
476.30	1251.31
476.51	1284.08
476.71	1136.62
476.91	1212.40
477.11	1269.74
477.32	1236.97
477.52	1335.28
477.72	1318.89
477.92	1222.64
478.12	1255.40
478.33	1177.58
478.53	1212.40
478.73	1218.54
478.93	1191.92
479.14	1230.83
479.34	1249.26
479.54	1226.73
479.74	1224.69
479.94	1251.31
480.15	1222.64
480.35	1331.18
480.55	1183.73
480.75	1236.97
480.96	1189.87
481.16	1249.26
481.36	1198.06
481.56	1177.58
481.76	1226.73
481.97	1329.13
482.17	1296.36
482.37	1275.88
482.57	1300.46
482.77	1265.64
482.98	1249.26
483.18	1173.49
483.38	1263.60
483.58	1181.68
483.78	1212.40
483.98	1228.78
484.19	1224.69
484.39	1212.40
484.59	1302.51
484.79	1257.45
484.99	1124.33
485.20	1214.45
485.40	1331.18
485.60	1249.26
485.80	1257.45
486.00	1273.84
486.20	1181.68
486.41	1288.17
486.61	1171.44
486.81	1263.60
487.01	1177.58
487.21	1245.16
487.42	1234.93
487.62	1210.35
487.82	1228.78
488.02	1234.93
488.22	1202.16
488.42	1239.02
488.62	1185.77
488.83	1224.69
489.03	1247.21
489.23	1255.40
489.43	1220.59
489.63	1191.92
489.83	1310.70
490.04	1261.55
490.24	1251.31
490.44	1181.68
490.64	1191.92
490.84	1286.12
491.04	1189.87
491.24	1232.88
491.45	1228.78
491.65	1228.78
491.85	1286.12
492.05	1331.18
492.25	1265.64
492.45	1198.06
492.65	1230.83
492.86	1234.93
493.06	1222.64
493.26	1202.16
493.46	1202.16
493.66	1175.53
493.86	1212.40
494.06	1273.84
494.26	1175.53
494.47	1306.60
494.67	1200.11
494.87	1282.03
495.07	1189.87
495.27	1243.12
495.47	1220.59
495.67	1255.40
495.87	1239.02
496.07	1294.32
496.28	1224.69
496.48	1220.59
496.68	1241.07
496.88	1204.21
497.08	1212.40
497.28	1286.12
497.48	1189.87
497.68	1253.36
497.88	1296.36
498.08	1284.08
498.29	1222.64
498.49	1284.08
498.69	1224.69
498.89	1206.25
499.09	1171.44
499.29	1236.97
499.49	1202.16
499.69	1259.50
499.89	1226.73
500.09	1232.88
500.29	1284.08
500.50	1226.73
500.70	1212.40
500.90	1282.03
501.10	1210.35
501.30	1249.26
501.50	1257.45
501.70	1255.40
501.90	1234.93
502.10	1329.13
502.30	1228.78
502.50	1263.60
502.70	1243.12
502.90	1191.92
503.10	1228.78
503.31	1228.78
503.51	1302.51
503.71	1265.64
503.91	1220.59
504.11	1179.63
504.31	1171.44
504.51	1249.26
504.71	1255.40
504.91	1257.45
505.11	1243.12
505.31	1191.92
505.51	1222.64
505.71	1316.84
505.91	1243.12
506.11	1216.49
506.31	1185.77
506.51	1165.29
506.71	1224.69
506.91	1275.88
507.11	1277.93
507.31	1341.42
507.51	1214.45
507.72	1292.27
507.92	1202.16
508.12	1277.93
508.32	1232.88
508.52	1325.04
508.72	1241.07
508.92	1251.31
509.12	1150.96
509.32	1200.11
509.52	1245.16
509.72	1196.01
509.92	1228.78
510.12	1202.16
510.32	1247.21
510.52	1292.27
510.72	1212.40
510.92	1241.07
511.12	1279.98
511.32	1140.72
511.52	1228.78
511.72	1218.54
511.92	1212.40
512.12	1249.26
512.32	1210.35
512.52	1208.30
512.72	1253.36
512.92	1193.97
513.12	1269.74
513.32	1226.73
513.52	1279.98
513.72	1198.06
513.92	1269.74
514.12	1286.12
514.32	1279.98
514.52	1259.50
514.72	1157.10
514.92	1320.94
515.12	1251.31
515.32	1286.12
515.52	1220.59
515.72	1253.36
515.92	1155.05
516.12	1191.92
516.32	1206.25
516.52	1196.01
516.72	1187.82
516.92	1212.40
517.12	1306.60
517.32	1236.97
517.51	1257.45
517.71	1177.58
517.91	1202.16
518.11	1220.59
518.31	1247.21
518.51	1302.51
518.71	1155.05
518.91	1282.03
519.11	1179.63
519.31	1263.60
519.51	1292.27
519.71	1198.06
519.91	1298.41
520.11	1216.49
520.31	1243.12
520.51	1204.21
520.71	1206.25
520.91	1265.64
521.11	1181.68
521.31	1271.79
521.51	1232.88
521.70	1290.22
521.90	1241.07
522.10	1202.16
522.30	1200.11
522.50	1304.56
522.70	1181.68
522.90	1206.25
523.10	1159.15
523.30	1232.88
523.50	1179.63
523.70	1251.31
523.90	1171.44
524.10	1294.32
524.30	1226.73
524.49	1265.64
524.69	1337.32
524.89	1292.27
525.09	1232.88
525.29	1241.07
525.49	1206.25
525.69	1216.49
525.89	1265.64
526.09	1243.12
526.29	1241.07
526.49	1249.26
526.68	1208.30
526.88	1234.93
527.08	1220.59
527.28	1265.64
527.48	1257.45
527.68	1294.32
527.88	1236.97
528.08	1218.54
528.28	1296.36
528.48	1212.40
528.67	1196.01
528.87	1245.16
529.07	1263.60
529.27	1236.97
529.47	1181.68
529.67	1253.36
529.87	1257.45
530.07	1255.40
530.26	1214.45
530.46	1296.36
530.66	1222.64
530.86	1271.79
531.06	1322.99
531.26	1234.93
531.46	1292.27
531.66	1208.30
531.85	1294.32
532.05	1277.93
532.25	1245.16
532.45	1249.26
532.65	1292.27
532.85	1204.21
533.05	1275.88
533.25	1212.40
533.44	1282.03
533.64	1202.16
533.84	1179.63
534.04	1241.07
534.24	1204.21
534.44	1236.97
534.63	1251.31
534.83	1161.20
535.03	1245.16
535.23	1259.50
535.43	1304.56
535.63	1241.07
535.83	1247.21
536.02	1230.83
536.22	1210.35
536.42	1290.22
536.62	1198.06
536.82	1331.18
537.02	1310.70
537.21	1288.17
537.41	1316.84
537.61	1286.12
537.81	1220.59
538.01	1234.93
538.21	1292.27
538.40	1304.56
538.60	1171.44
538.80	1226.73
539.00	1255.40
539.20	1245.16
539.39	1345.52
539.59	1312.75
539.79	1353.71
539.99	1296.36
540.19	1329.13
540.39	1310.70
540.58	1335.28
540.78	1380.33
540.98	1347.56
541.18	1386.47
541.38	1394.67
541.57	1382.38
541.77	1355.76
541.97	1404.91
542.17	1466.35
542.37	1433.58
542.56	1439.72
542.76	1433.58
542.96	1413.10
543.16	1439.72
543.35	1460.20
543.55	1468.39
543.75	1372.14
543.95	1441.77
544.15	1366.00
544.34	1417.19
544.54	1429.48
544.74	1392.62
544.94	1452.01
545.14	1470.44
545.33	1460.20
545.53	1425.39
545.73	1355.76
545.93	1347.56
546.12	1378.28
546.32	1404.91
546.52	1359.85
546.72	1282.03
546.91	1380.33
547.11	1318.89
547.31	1337.32
547.51	1335.28
547.70	1368.04
547.90	1320.94
548.10	1361.90
548.30	1388.52
548.50	1234.93
548.69	1333.23
548.89	1355.76
549.09	1284.08
549.29	1288.17
549.48	1273.84
549.68	1243.12
549.88	1310.70
550.07	1279.98
550.27	1259.50
550.47	1232.88
550.67	1249.26
550.86	1263.60
551.06	1312.75
551.26	1216.49
551.46	1337.32
551.65	1271.79
551.85	1359.85
552.05	1290.22
552.25	1277.93
552.44	1259.50
552.64	1284.08
552.84	1370.09
553.03	1257.45
553.23	1251.31
553.43	1302.51
553.63	1230.83
553.82	1171.44
554.02	1247.21
554.22	1255.40
554.41	1269.74
554.61	1288.17
554.81	1257.45
555.01	1179.63
555.20	1161.20
555.40	1255.40
555.60	1249.26
555.79	1257.45
555.99	1200.11
556.19	1228.78
556.38	1292.27
556.58	1302.51
556.78	1247.21
556.98	1228.78
557.17	1210.35
557.37	1216.49
557.57	1196.01
557.76	1290.22
557.96	1253.36
558.16	1239.02
558.35	1247.21
558.55	1257.45
558.75	1304.56
558.94	1247.21
559.14	1247.21
559.34	1290.22
559.53	1261.55
559.73	1286.12
559.93	1302.51
560.12	1263.60
560.32	1308.65
560.52	1243.12
560.71	1341.42
560.91	1214.45
561.11	1318.89
561.30	1347.56
561.50	1245.16
561.70	1171.44
561.89	1294.32
562.09	1327.08
562.29	1261.55
562.48	1310.70
562.68	1175.53
562.88	1208.30
563.07	1263.60
563.27	1296.36
563.47	1257.45
563.66	1265.64
563.86	1259.50
564.06	1290.22
564.25	1277.93
564.45	1202.16
564.64	1214.45
564.84	1247.21
565.04	1208.30
565.23	1236.97
565.43	1167.34
565.63	1329.13
565.82	1204.21
566.02	1222.64
566.22	1239.02
566.41	1284.08
566.61	1267.69
566.80	1288.17
567.00	1288.17
567.20	1269.74
567.39	1286.12
567.59	1251.31
567.78	1257.45
567.98	1241.07
568.18	1261.55
568.37	1275.88
568.57	1269.74
568.77	1343.47
568.96	1202.16
569.16	1208.30
569.35	1314.80
569.55	1273.84
569.75	1230.83
569.94	1322.99
570.14	1304.56
570.33	1243.12
570.53	1286.12
570.73	1302.51
570.92	1230.83
571.12	1216.49
571.31	1318.89
571.51	1302.51
571.71	1206.25
571.90	1296.36
572.10	1306.60
572.29	1294.32
572.49	1198.06
572.68	1341.42
572.88	1236.97
573.08	1351.66
573.27	1255.40
573.47	1286.12
573.66	1239.02
573.86	1261.55
574.05	1193.97
574.25	1271.79
574.45	1341.42
574.64	1269.74
574.84	1298.41
575.03	1316.84
575.23	1327.08
575.42	1200.11
575.62	1361.90
575.82	1331.18
576.01	1288.17
576.21	1286.12
576.40	1277.93
576.60	1247.21
576.79	1241.07
576.99	1265.64
577.18	1286.12
577.38	1304.56
577.57	1294.32
577.77	1259.50
577.97	1277.93
578.16	1279.98
578.36	1265.64
578.55	1341.42
578.75	1298.41
578.94	1279.98
579.14	1310.70
579.33	1329.13
579.53	1269.74
579.72	1382.38
579.92	1308.65
580.11	1263.60
580.31	1308.65
580.50	1318.89
580.70	1357.80
580.90	1255.40
581.09	1349.61
581.29	1329.13
581.48	1298.41
581.68	1253.36
581.87	1378.28
582.07	1300.46
582.26	1370.09
582.46	1322.99
582.65	1343.47
582.85	1341.42
583.04	1359.85
583.24	1286.12
583.43	1275.88
583.63	1267.69
583.82	1286.12
584.02	1296.36
584.21	1349.61
584.41	1314.80
584.60	1277.93
584.80	1351.66
584.99	1253.36
585.19	1271.79
585.38	1322.99
585.58	1296.36
585.77	1349.61
585.97	1355.76
586.16	1294.32
586.35	1396.71
586.55	1269.74
586.74	1339.37
586.94	1363.95
587.13	1325.04
587.33	1304.56
587.52	1329.13
587.72	1310.70
587.91	1304.56
588.11	1322.99
588.30	1370.09
588.50	1243.12
588.69	1310.70
588.89	1226.73
589.08	1234.93
589.28	1296.36
589.47	1335.28
589.66	1265.64
589.86	1239.02
590.05	1314.80
590.25	1298.41
590.44	1269.74
590.64	1347.56
590.83	1329.13
591.03	1282.03
591.22	1243.12
591.41	1253.36
591.61	1288.17
591.80	1476.59
592.00	1232.88
592.19	1271.79
592.39	1255.40
592.58	1310.70
592.78	1355.76
592.97	1351.66
593.16	1247.21
593.36	1331.18
593.55	1263.60
593.75	1265.64
593.94	1284.08
594.14	1361.90
594.33	1261.55
594.52	1269.74
594.72	1277.93
594.91	1261.55
595.11	1298.41
595.30	1247.21
595.49	1290.22
595.69	1265.64
595.88	1277.93
596.08	1312.75
596.27	1255.40
596.47	1331.18
596.66	1236.97
596.85	1185.77
597.05	1339.37
597.24	1269.74
597.44	1230.83
597.63	1296.36
597.82	1232.88
598.02	1320.94
598.21	1306.60
598.40	1224.69
598.60	1273.84
598.79	1269.74
598.99	1325.04
599.18	1277.93
599.37	1286.12
599.57	1279.98
599.76	1261.55
599.96	1341.42
600.15	1267.69
600.34	1271.79
600.54	1335.28
600.73	1351.66
600.92	1208.30
601.12	1253.36
601.31	1218.54
601.51	1300.46
601.70	1279.98
601.89	1230.83
602.09	1267.69
602.28	1249.26
602.47	1275.88
602.67	1279.98
602.86	1329.13
603.05	1292.27
603.25	1294.32
603.44	1327.08
603.63	1224.69
603.83	1357.80
604.02	1193.97
604.22	1267.69
604.41	1322.99
604.60	1269.74
604.80	1271.79
604.99	1261.55
605.18	1269.74
605.38	1204.21
605.57	1253.36
605.76	1310.70
605.96	1267.69
606.15	1249.26
606.34	1296.36
606.54	1263.60
606.73	1279.98
606.92	1263.60
607.12	1286.12
607.31	1292.27
607.50	1232.88
607.70	1236.97
607.89	1212.40
608.08	1294.32
608.28	1241.07
608.47	1247.21
608.66	1331.18
608.85	1345.52
609.05	1269.74
609.24	1304.56
609.43	1306.60
609.63	1396.71
609.82	1474.54
610.01	1413.10
610.21	1568.74
610.40	1492.97
610.59	1441.77
610.79	1456.11
610.98	1427.43
611.17	1464.30
611.36	1458.15
611.56	1468.39
611.75	1400.81
611.94	1353.71
612.14	1361.90
612.33	1396.71
612.52	1325.04
612.71	1343.47
612.91	1366.00
613.10	1320.94
613.29	1302.51
613.49	1404.91
613.68	1310.70
613.87	1345.52
614.06	1406.95
614.26	1292.27
614.45	1318.89
614.64	1318.89
614.83	1339.37
615.03	1290.22
615.22	1298.41
615.41	1230.83
615.60	1269.74
615.80	1329.13
615.99	1325.04
616.18	1322.99
616.38	1259.50
616.57	1290.22
616.76	1271.79
616.95	1282.03
617.15	1292.27
617.34	1292.27
617.53	1263.60
617.72	1298.41
617.92	1275.88
618.11	1193.97
618.30	1337.32
618.49	1286.12
618.68	1236.97
618.88	1222.64
619.07	1288.17
619.26	1222.64
619.45	1271.79
619.65	1322.99
619.84	1273.84
620.03	1284.08
620.22	1265.64
620.42	1249.26
620.61	1255.40
620.80	1208.30
620.99	1304.56
621.18	1284.08
621.38	1349.61
621.57	1290.22
621.76	1325.04
621.95	1269.74
622.15	1220.59
622.34	1236.97
622.53	1214.45
622.72	1322.99
622.91	1193.97
623.11	1339.37
623.30	1255.40
623.49	1314.80
623.68	1257.45
623.87	1318.89
624.07	1277.93
624.26	1226.73
624.45	1277.93
624.64	1286.12
624.83	1245.16
625.03	1320.94
625.22	1212.40
625.41	1286.12
625.60	1243.12
625.79	1294.32
625.98	1286.12
626.18	1282.03
626.37	1241.07
626.56	1245.16
626.75	1232.88
626.94	1298.41
627.14	1222.64
627.33	1228.78
627.52	1345.52
627.71	1239.02
627.90	1347.56
628.09	1292.27
628.29	1202.16
628.48	1273.84
628.67	1243.12
628.86	1302.51
629.05	1277.93
629.24	1286.12
629.43	1290.22
629.63	1286.12
629.82	1196.01
630.01	1277.93
630.20	1302.51
630.39	1261.55
630.58	1251.31
630.78	1218.54
630.97	1236.97
631.16	1171.44
631.35	1284.08
631.54	1204.21
631.73	1247.21
631.92	1245.16
632.11	1241.07
632.31	1368.04
632.50	1228.78
632.69	1234.93
632.88	1226.73
633.07	1257.45
633.26	1206.25
633.45	1251.31
633.65	1261.55
633.84	1220.59
634.03	1282.03
634.22	1277.93
634.41	1196.01
634.60	1228.78
634.79	1228.78
634.98	1306.60
635.17	1304.56
635.37	1263.60
635.56	1236.97
635.75	1249.26
635.94	1273.84
636.13	1245.16
636.32	1257.45
636.51	1245.16
636.70	1212.40
636.89	1273.84
637.08	1216.49
637.28	1171.44
637.47	1198.06
637.66	1185.77
637.85	1290.22
638.04	1210.35
638.23	1269.74
638.42	1198.06
638.61	1286.12
638.80	1282.03
638.99	1206.25
639.18	1212.40
639.38	1269.74
639.57	1247.21
639.76	1126.38
639.95	1218.54
640.14	1265.64
640.33	1245.16
640.52	1224.69
640.71	1228.78
640.90	1243.12
641.09	1277.93
641.28	1136.62
641.47	1290.22
641.66	1216.49
641.85	1273.84
642.04	1196.01
642.24	1208.30
642.43	1318.89
642.62	1603.56
642.81	1249.26
643.00	1216.49
643.19	1239.02
643.38	1243.12
643.57	1263.60
643.76	1304.56
643.95	1230.83
644.14	1292.27
644.33	1241.07
644.52	1265.64
644.71	1169.39
644.90	1247.21
645.09	1236.97
645.28	1245.16
645.47	1243.12
645.66	1230.83
645.85	1261.55
646.04	1259.50
646.23	1191.92
646.42	1298.41
646.61	1263.60
646.80	1261.55
646.99	1144.81
647.18	1243.12
647.37	1255.40
647.56	1292.27
647.75	1267.69
647.95	1251.31
648.14	1236.97
648.33	1210.35
648.52	1302.51
648.71	1222.64
648.90	1206.25
649.09	1163.25
649.28	1243.12
649.47	1210.35
649.66	1175.53
649.85	1214.45
650.04	1279.98
650.23	1298.41
650.42	1255.40
650.61	1177.58
650.79	1230.83
650.98	1263.60
651.17	1267.69
651.36	1130.48
651.55	1214.45
651.74	1163.25
651.93	1243.12
652.12	1288.17
652.31	1196.01
652.50	1296.36
652.69	1251.31
652.88	1243.12
653.07	1212.40
653.26	1253.36
653.45	1251.31
653.64	1212.40
653.83	1196.01
654.02	1273.84
654.21	1257.45
654.40	1204.21
654.59	1271.79
654.78	1234.93
654.97	1327.08
655.16	1251.31
655.35	1187.82
655.54	1189.87
655.73	1300.46
655.92	1198.06
656.11	1284.08
656.30	1247.21
656.48	1261.55
656.67	1267.69
656.86	1243.12
657.05	1155.05
657.24	1206.25
657.43	1228.78
657.62	1261.55
657.81	1257.45
658.00	1304.56
658.19	1218.54
658.38	1241.07
658.57	1236.97
658.76	1349.61
658.95	1189.87
659.13	1169.39
659.32	1249.26
659.51	1232.88
659.70	1228.78
659.89	1206.25
660.08	1257.45
660.27	1241.07
660.46	1267.69
660.65	1183.73
660.84	1271.79
661.03	1310.70
661.22	1187.82
661.40	1318.89
661.59	1224.69
661.78	1298.41
661.97	1200.11
662.16	1220.59
662.35	1198.06
662.54	1206.25
662.73	1218.54
662.92	1220.59
663.11	1239.02
663.29	1294.32
663.48	1214.45
663.67	1228.78
663.86	1245.16
664.05	1277.93
664.24	1198.06
664.43	1253.36
664.62	1288.17
664.80	1196.01
664.99	1284.08
665.18	1243.12
665.37	1187.82
665.56	1273.84
665.75	1224.69
665.94	1206.25
666.13	1179.63
666.31	1177.58
666.50	1220.59
666.69	1257.45
666.88	1181.68
667.07	1265.64
667.26	1198.06
667.45	1236.97
667.63	1216.49
667.82	1191.92
668.01	1316.84
668.20	1220.59
668.39	1181.68
668.58	1220.59
668.76	1257.45
668.95	1251.31
669.14	1300.46
669.33	1249.26
669.52	1234.93
669.71	1179.63
669.90	1249.26
670.08	1284.08
670.27	1218.54
670.46	1204.21
670.65	1236.97
670.84	1277.93
671.03	1191.92
671.21	1277.93
671.40	1173.49
671.59	1187.82
671.78	1239.02
671.97	1263.60
672.15	1241.07
672.34	1114.10
672.53	1177.58
672.72	1202.16
672.91	1255.40
673.09	1304.56
673.28	1198.06
673.47	1292.27
673.66	1218.54
673.85	1259.50
674.04	1269.74
674.22	1277.93
674.41	1216.49
674.60	1210.35
674.79	1204.21
674.98	1198.06
675.16	1239.02
675.35	1177.58
675.54	1269.74
675.73	1239.02
675.91	1304.56
676.10	1204.21
676.29	1206.25
676.48	1269.74
676.67	1241.07
676.85	1232.88
677.04	1259.50
677.23	1196.01
677.42	1249.26
677.60	1220.59
677.79	1228.78
677.98	1277.93
678.17	1288.17
678.36	1232.88
678.54	1312.75
678.73	1310.70
678.92	1257.45
679.11	1277.93
679.29	1187.82
679.48	1247.21
679.67	1261.55
679.86	1241.07
680.04	1314.80
680.23	1271.79
680.42	1294.32
680.61	1236.97
680.79	1310.70
680.98	1269.74
681.17	1206.25
681.36	1241.07
681.54	1300.46
681.73	1337.32
681.92	1210.35
682.11	1253.36
682.29	1306.60
682.48	1249.26
682.67	1282.03
682.85	1247.21
683.04	1292.27
683.23	1261.55
683.42	1183.73
683.60	1267.69
683.79	1245.16
683.98	1279.98
684.17	1312.75
684.35	1222.64
684.54	1288.17
684.73	1226.73
684.91	1279.98
685.10	1187.82
685.29	1226.73
685.48	1302.51
685.66	1255.40
685.85	1304.56
686.04	1310.70
686.22	1310.70
686.41	1251.31
686.60	1230.83
686.78	1234.93
686.97	1247.21
687.16	1277.93
687.35	1316.84
687.53	1273.84
687.72	1284.08
687.91	1331.18
688.09	1282.03
688.28	1331.18
688.47	1279.98
688.65	1243.12
688.84	1243.12
689.03	1255.40
689.21	1230.83
689.40	1261.55
689.59	1255.40
689.77	1173.49
689.96	1259.50
690.15	1251.31
690.33	1273.84
690.52	1261.55
690.71	1343.47
690.89	1269.74
691.08	1241.07
691.27	1259.50
691.45	1325.04
691.64	1230.83
691.83	1228.78
692.01	1314.80
692.20	1159.15
692.39	1271.79
692.57	1263.60
692.76	1306.60
692.95	1216.49
693.13	1314.80
693.32	1269.74
693.50	1218.54
693.69	1261.55
693.88	1286.12
694.06	1261.55
694.25	1333.23
694.44	1263.60
694.62	1253.36
694.81	1322.99
695.00	1236.97
695.18	1329.13
695.37	1310.70
695.55	1263.60
695.74	1312.75
695.93	1290.22
696.11	1378.28
696.30	1251.31
696.49	1306.60
696.67	1275.88
696.86	1314.80
697.04	1292.27
697.23	1304.56
697.42	1261.55
697.60	1382.38
697.79	1267.69
697.97	1308.65
698.16	1271.79
698.35	1241.07
698.53	1269.74
698.72	1304.56
698.90	1304.56
699.09	1261.55
699.28	1294.32
699.46	1310.70
699.65	1282.03
699.83	1294.32
700.02	1329.13
700.21	1314.80
700.39	1271.79
700.58	1327.08
700.76	1294.32
700.95	1314.80
701.13	1314.80
701.32	1269.74
701.51	1282.03
701.69	1290.22
701.88	1277.93
702.06	1294.32
702.25	1259.50
702.43	1310.70
702.62	1241.07
702.81	1341.42
702.99	1232.88
703.18	1304.56
703.36	1327.08
703.55	1310.70
703.73	1257.45
703.92	1279.98
704.10	1322.99
704.29	1234.93
704.48	1337.32
704.66	1257.45
704.85	1361.90
705.03	1341.42
705.22	1234.93
705.40	1236.97
705.59	1314.80
705.77	1306.60
705.96	1316.84
706.14	1378.28
706.33	1386.47
706.51	1263.60
706.70	1298.41
706.89	1366.00
707.07	1347.56
707.26	1325.04
707.44	1327.08
707.63	1341.42
707.81	1292.27
708.00	1366.00
708.18	1308.65
708.37	1343.47
708.55	1339.37
708.74	1325.04
708.92	1335.28
709.11	1273.84
709.29	1335.28
709.48	1322.99
709.66	1349.61
709.85	1306.60
710.03	1327.08
710.22	1339.37
710.40	1294.32
710.59	1288.17
710.77	1314.80
710.96	1378.28
711.14	1329.13
711.33	1318.89
711.51	1318.89
711.70	1370.09
711.88	1292.27
712.07	1351.66
712.25	1333.23
712.44	1380.33
712.62	1331.18
712.81	1331.18
712.99	1261.55
713.18	1404.91
713.36	1353.71
713.54	1394.67
713.73	1267.69
713.91	1239.02
714.10	1304.56
714.28	1298.41
714.47	1347.56
714.65	1241.07
714.84	1263.60
715.02	1320.94
715.21	1322.99
715.39	1355.76
715.58	1198.06
715.76	1320.94
715.94	1359.85
716.13	1245.16
716.31	1261.55
716.50	1322.99
716.68	1245.16
716.87	1288.17
717.05	1343.47
717.24	1349.61
717.42	1296.36
717.60	1398.76
717.79	1261.55
717.97	1288.17
718.16	1288.17
718.34	1417.19
718.53	1329.13
718.71	1314.80
718.89	1298.41
719.08	1331.18
719.26	1308.65
719.45	1304.56
719.63	1298.41
719.82	1265.64
720.00	1333.23
720.18	1359.85
720.37	1314.80
720.55	1308.65
720.74	1200.11
720.92	1322.99
721.10	1325.04
721.29	1245.16
721.47	1310.70
721.66	1302.51
721.84	1331.18
722.02	1245.16
722.21	1312.75
722.39	1292.27
722.58	1294.32
722.76	1316.84
722.94	1325.04
723.13	1255.40
723.31	1269.74
723.50	1304.56
723.68	1366.00
723.86	1349.61
724.05	1351.66
724.23	1314.80
724.41	1247.21
724.60	1255.40
724.78	1302.51
724.97	1320.94
725.15	1292.27
725.33	1341.42
725.52	1275.88
725.70	1282.03
725.88	1335.28
726.07	1320.94
726.25	1312.75
726.44	1249.26
726.62	1273.84
726.80	1308.65
726.99	1310.70
727.17	1353.71
727.35	1310.70
727.54	1228.78
727.72	1232.88
727.90	1310.70
728.09	1322.99
728.27	1341.42
728.45	1314.80
728.64	1341.42
728.82	1241.07
729.00	1247.21
729.19	1335.28
729.37	1255.40
729.55	1308.65
729.74	1320.94
729.92	1286.12
730.10	1433.58
730.29	1404.91
730.47	1327.08
730.65	1368.04
730.84	1347.56
731.02	1316.84
731.20	1363.95
731.39	1279.98
731.57	1335.28
731.75	1282.03
731.94	1304.56
732.12	1282.03
732.30	1271.79
732.49	1329.13
732.67	1337.32
732.85	1335.28
733.03	1288.17
733.22	1345.52
733.40	1320.94
733.58	1357.80
733.77	1322.99
733.95	1296.36
734.13	1282.03
734.32	1308.65
734.50	1349.61
734.68	1337.32
734.86	1376.24
735.05	1329.13
735.23	1349.61
735.41	1333.23
735.60	1261.55
735.78	1341.42
735.96	1314.80
736.14	1302.51
736.33	1347.56
736.51	1302.51
736.69	1331.18
736.87	1314.80
737.06	1353.71
737.24	1304.56
737.42	1329.13
737.61	1339.37
737.79	1300.46
737.97	1327.08
738.15	1345.52
738.34	1273.84
738.52	1349.61
738.70	1265.64
738.88	1361.90
739.07	1318.89
739.25	1265.64
739.43	1310.70
739.61	1243.12
739.80	1335.28
739.98	1335.28
740.16	1306.60
740.34	1304.56
740.52	1404.91
740.71	1243.12
740.89	1357.80
741.07	1300.46
741.25	1322.99
741.44	1376.24
741.62	1310.70
741.80	1302.51
741.98	1343.47
742.17	1318.89
742.35	1290.22
742.53	1357.80
742.71	1370.09
742.89	1374.19
743.08	1339.37
743.26	1329.13
743.44	1292.27
743.62	1226.73
743.80	1275.88
743.99	1312.75
744.17	1337.32
744.35	1261.55
744.53	1363.95
744.71	1349.61
744.90	1275.88
745.08	1302.51
745.26	1357.80
745.44	1384.43
745.62	1304.56
745.81	1376.24
745.99	1374.19
746.17	1349.61
746.35	1318.89
746.53	1327.08
746.72	1279.98
746.90	1277.93
747.08	1349.61
747.26	1290.22
747.44	1359.85
747.62	1290.22
747.81	1279.98
747.99	1302.51
748.17	1286.12
748.35	1300.46
748.53	1355.76
748.71	1357.80
748.90	1273.84
749.08	1386.47
749.26	1265.64
749.44	1308.65
749.62	1265.64
749.80	1298.41
749.99	1368.04
750.17	1253.36
750.35	1413.10
750.53	1339.37
750.71	1302.51
750.89	1314.80
751.07	1308.65
751.26	1351.66
751.44	1316.84
751.62	1275.88
751.80	1339.37
751.98	1267.69
752.16	1368.04
752.34	1253.36
752.53	1279.98
752.71	1327.08
752.89	1325.04
753.07	1347.56
753.25	1265.64
753.43	1318.89
753.61	1339.37
753.79	1257.45
753.98	1306.60
754.16	1351.66
754.34	1279.98
754.52	1294.32
754.70	1320.94
754.88	1292.27
755.06	1220.59
755.24	1312.75
755.42	1308.65
755.60	1353.71
755.79	1259.50
755.97	1329.13
756.15	1314.80
756.33	1331.18
756.51	1386.47
756.69	1253.36
756.87	1282.03
757.05	1306.60
757.23	1302.51
757.41	1331.18
757.60	1406.95
757.78	1325.04
757.96	1263.60
758.14	1306.60
758.32	1314.80
758.50	1341.42
758.68	1288.17
758.86	1316.84
759.04	1310.70
759.22	1359.85
759.40	1292.27
759.58	1271.79
759.76	1335.28
759.94	1302.51
760.13	1339.37
760.31	1318.89
760.49	1335.28
760.67	1329.13
760.85	1345.52
761.03	1368.04
761.21	1294.32
761.39	1357.80
761.57	1322.99
761.75	1327.08
761.93	1343.47
762.11	1310.70
762.29	1370.09
762.47	1327.08
762.65	1390.57
762.83	1374.19
763.01	1374.19
763.19	1327.08
763.37	1396.71
763.55	1370.09
763.73	1380.33
763.91	1331.18
764.09	1349.61
764.27	1335.28
764.45	1339.37
764.64	1366.00
764.82	1308.65
765.00	1390.57
765.18	1333.23
765.36	1347.56
765.54	1302.51
765.72	1351.66
765.90	1353.71
766.08	1302.51
766.26	1339.37
766.44	1345.52
766.62	1335.28
766.80	1329.13
766.98	1392.62
767.16	1368.04
767.34	1345.52
767.52	1329.13
767.70	1322.99
767.88	1378.28
768.06	1345.52
768.24	1351.66
768.42	1325.04
768.60	1333.23
768.78	1341.42
768.96	1347.56
769.13	1335.28
769.31	1318.89
769.49	1423.34
769.67	1376.24
769.85	1343.47
770.03	1322.99
770.21	1267.69
770.39	1402.86
770.57	1421.29
770.75	1300.46
770.93	1288.17
771.11	1349.61
771.29	1347.56
771.47	1333.23
771.65	1388.52
771.83	1386.47
772.01	1345.52
772.19	1349.61
772.37	1347.56
772.55	1359.85
772.73	1312.75
772.91	1427.43
773.09	1413.10
773.27	1298.41
773.44	1382.38
773.62	1306.60
773.80	1357.80
773.98	1327.08
774.16	1312.75
774.34	1265.64
774.52	1302.51
774.70	1314.80
774.88	1300.46
775.06	1314.80
775.24	1277.93
775.42	1335.28
775.60	1337.32
775.78	1353.71
775.95	1363.95
776.13	1370.09
776.31	1380.33
776.49	1357.80
776.67	1306.60
776.85	1402.86
777.03	1441.77
777.21	1353.71
777.39	1413.10
777.57	1298.41
777.75	1380.33
777.92	1306.60
778.10	1249.26
778.28	1273.84
778.46	1327.08
778.64	1331.18
778.82	1255.40
779.00	1257.45
779.18	1335.28
779.36	1341.42
779.53	1353.71
779.71	1335.28
779.89	1382.38
780.07	1359.85
780.25	1353.71
780.43	1322.99
780.61	1372.14
780.79	1277.93
780.96	1298.41
781.14	1271.79
781.32	1382.38
781.50	1345.52
781.68	1277.93
781.86	1304.56
782.04	1390.57
782.21	1325.04
782.39	1275.88
782.57	1366.00
782.75	1363.95
782.93	1312.75
783.11	1349.61
783.29	1361.90
783.46	1361.90
783.64	1411.05
783.82	1314.80
784.00	1363.95
784.18	1415.15
784.36	1296.36
784.54	1339.37
784.71	1306.60
784.89	1306.60
785.07	1335.28
785.25	1368.04
785.43	1304.56
785.60	1341.42
785.78	1388.52
785.96	1400.81
786.14	1322.99
786.32	1329.13
786.50	1402.86
786.67	1296.36
786.85	1245.16
787.03	1337.32
787.21	1284.08
787.39	1271.79
787.56	1310.70
787.74	1320.94
787.92	1382.38
788.10	1400.81
788.28	1343.47
788.45	1318.89
788.63	1327.08
788.81	1318.89
788.99	1325.04
789.17	1286.12
789.34	1300.46
789.52	1316.84
789.70	1263.60
789.88	1310.70
790.06	1327.08
790.23	1302.51
790.41	1337.32
790.59	1322.99
790.77	1359.85
790.95	1314.80
791.12	1300.46
791.30	1327.08
791.48	1382.38
791.66	1333.23
791.83	1327.08
792.01	1275.88
792.19	1322.99
792.37	1308.65
792.54	1363.95
792.72	1372.14
792.90	1353.71
793.08	1376.24
793.25	1349.61
793.43	1331.18
793.61	1284.08
793.79	1306.60
793.96	1355.76
794.14	1294.32
794.32	1378.28
794.50	1351.66
794.67	1306.60
794.85	1257.45
795.03	1331.18
795.21	1310.70
795.38	1308.65
795.56	1302.51
795.74	1282.03
795.92	1347.56
796.09	1335.28
796.27	1390.57
796.45	1300.46
796.62	1337.32
796.80	1249.26
796.98	1245.16
797.16	1312.75
797.33	1239.02
797.51	1322.99
797.69	1304.56
797.86	1331.18
798.04	1247.21
798.22	1312.75
798.40	1284.08
798.57	1290.22
798.75	1304.56
798.93	1361.90
799.10	1378.28
799.28	1366.00
799.46	1275.88
799.63	1314.80
799.81	1361.90
799.99	1312.75
800.17	1296.36
800.34	1294.32
800.52	1255.40
800.70	1294.32
800.87	1333.23
801.05	1384.43
801.23	1273.84
801.40	1304.56
801.58	1298.41
801.76	1316.84
801.93	1337.32
802.11	1333.23
802.29	1329.13
802.46	1282.03
802.64	1318.89
802.82	1345.52
802.99	1241.07
803.17	1298.41
803.35	1306.60
803.52	1363.95
803.70	1288.17
803.88	1269.74
804.05	1302.51
804.23	1329.13
804.41	1273.84
804.58	1277.93
804.76	1300.46
804.94	1269.74
805.11	1251.31
805.29	1384.43
805.46	1372.14
805.64	1345.52
805.82	1339.37
805.99	1339.37
806.17	1251.31
806.35	1331.18
806.52	1335.28
806.70	1329.13
806.87	1265.64
807.05	1329.13
807.23	1273.84
807.40	1300.46
807.58	1273.84
807.76	1294.32
807.93	1304.56
808.11	1341.42
808.28	1275.88
808.46	1345.52
808.64	1286.12
808.81	1314.80
808.99	1314.80
809.16	1325.04
809.34	1230.83
809.52	1253.36
809.69	1341.42
809.87	1316.84
810.04	1271.79
810.22	1349.61
810.40	1251.31
810.57	1255.40
810.75	1351.66
810.92	1337.32
811.10	1228.78
811.28	1241.07
811.45	1269.74
811.63	1325.04
811.80	1302.51
811.98	1322.99
812.15	1339.37
812.33	1378.28
812.51	1312.75
812.68	1366.00
812.86	1320.94
813.03	1302.51
813.21	1357.80
813.38	1402.86
813.56	1275.88
813.74	1341.42
813.91	1271.79
814.09	1335.28
814.26	1298.41
814.44	1347.56
814.61	1241.07
814.79	1320.94
814.96	1257.45
815.14	1333.23
815.31	1294.32
815.49	1333.23
815.67	1384.43
815.84	1273.84
816.02	1236.97
816.19	1294.32
816.37	1292.27
816.54	1320.94
816.72	1366.00
816.89	1298.41
817.07	1296.36
817.24	1316.84
817.42	1327.08
817.59	1322.99
817.77	1282.03
817.94	1296.36
818.12	1337.32
818.29	1353.71
818.47	1310.70
818.64	1261.55
818.82	1331.18
818.99	1318.89
819.17	1359.85
819.34	1249.26
819.52	1300.46
819.69	1312.75
819.87	1261.55
820.04	1370.09
820.22	1306.60
820.39	1306.60
820.57	1312.75
820.74	1243.12
820.92	1275.88
821.09	1318.89
821.27	1284.08
821.44	1269.74
821.62	1279.98
821.79	1308.65
821.97	1298.41
822.14	1288.17
822.32	1273.84
822.49	1286.12
822.67	1290.22
822.84	1372.14
823.02	1310.70
823.19	1232.88
823.37	1343.47
823.54	1312.75
823.72	1275.88
823.89	1322.99
824.06	1290.22
824.24	1275.88
824.41	1366.00
824.59	1286.12
824.76	1325.04
824.94	1366.00
825.11	1331.18
825.29	1286.12
825.46	1302.51
825.63	1286.12
825.81	1329.13
825.98	1288.17
826.16	1296.36
826.33	1329.13
826.51	1255.40
826.68	1368.04
826.86	1277.93
827.03	1261.55
827.20	1271.79
827.38	1302.51
827.55	1296.36
827.73	1265.64
827.90	1331.18
828.07	1359.85
828.25	1327.08
828.42	1290.22
828.60	1329.13
828.77	1320.94
828.95	1255.40
829.12	1320.94
829.29	1296.36
829.47	1312.75
829.64	1325.04
829.82	1288.17
829.99	1286.12
830.16	1282.03
830.34	1277.93
830.51	1337.32
830.69	1282.03
830.86	1279.98
831.03	1277.93
831.21	1273.84
831.38	1308.65
831.55	1290.22
831.73	1312.75
831.90	1361.90
832.08	1259.50
832.25	1277.93
832.42	1294.32
832.60	1241.07
832.77	1292.27
832.94	1312.75
833.12	1277.93
833.29	1247.21
833.47	1314.80
833.64	1226.73
833.81	1304.56
833.99	1306.60
834.16	1267.69
834.33	1296.36
834.51	1265.64
834.68	1339.37
834.85	1345.52
835.03	1392.62
835.20	1290.22
835.37	1288.17
835.55	1294.32
835.72	1271.79
835.90	1257.45
836.07	1286.12
836.24	1314.80
836.42	1282.03
836.59	1353.71
836.76	1314.80
836.94	1183.73
837.11	1349.61
837.28	1314.80
837.46	1308.65
837.63	1308.65
837.80	1251.31
837.97	1259.50
838.15	1308.65
838.32	1359.85
838.49	1306.60
838.67	1241.07
838.84	1273.84
839.01	1306.60
839.19	1300.46
839.36	1236.97
839.53	1329.13
839.71	1230.83
839.88	1325.04
840.05	1343.47
840.22	1279.98
840.40	1374.19
840.57	1259.50
840.74	1304.56
840.92	1232.88
841.09	1251.31
841.26	1241.07
841.43	1304.56
841.61	1271.79
841.78	1337.32
841.95	1239.02
842.13	1337.32
842.30	1292.27
842.47	1265.64
842.64	1257.45
842.82	1359.85
842.99	1298.41
843.16	1339.37
843.34	1286.12
843.51	1284.08
843.68	1296.36
843.85	1265.64
844.03	1335.28
844.20	1218.54
844.37	1392.62
844.54	1263.60
844.72	1372.14
844.89	1318.89
845.06	1316.84
845.23	1251.31
845.41	1359.85
845.58	1279.98
845.75	1251.31
845.92	1255.40
846.10	1288.17
846.27	1267.69
846.44	1224.69
846.61	1232.88
846.78	1286.12
846.96	1212.40
847.13	1241.07
847.30	1230.83
847.47	1271.79
847.65	1294.32
847.82	1345.52
847.99	1331.18
848.16	1372.14
848.33	1255.40
848.51	1269.74
848.68	1265.64
848.85	1294.32
849.02	1294.32
849.19	1267.69
849.37	1292.27
849.54	1275.88
849.71	1343.47
849.88	1269.74
850.05	1314.80
850.23	1353.71
850.40	1271.79
850.57	1200.11
850.74	1325.04
850.91	1236.97
851.09	1265.64
851.26	1320.94
851.43	1212.40
851.60	1284.08
851.77	1269.74
851.95	1302.51
852.12	1277.93
852.29	1279.98
852.46	1290.22
852.63	1292.27
852.80	1255.40
852.98	1390.57
853.15	1292.27
853.32	1261.55
853.49	1337.32
853.66	1222.64
853.83	1267.69
854.01	1241.07
854.18	1267.69
854.35	1282.03
854.52	1275.88
854.69	1277.93
854.86	1236.97
855.03	1296.36
855.21	1329.13
855.38	1361.90
855.55	1320.94
855.72	1286.12
855.89	1351.66
856.06	1382.38
856.23	1257.45
856.41	1306.60
856.58	1224.69
856.75	1325.04
856.92	1267.69
857.09	1325.04
857.26	1187.82
857.43	1173.49
857.60	1277.93
857.78	1247.21
857.95	1322.99
858.12	1253.36
858.29	1253.36
858.46	1302.51
858.63	1212.40
858.80	1314.80
858.97	1320.94
859.14	1310.70
859.32	1230.83
859.49	1265.64
859.66	1304.56
859.83	1251.31
860.00	1300.46
860.17	1236.97
860.34	1318.89
860.51	1279.98
860.68	1243.12
860.85	1243.12
861.02	1273.84
861.20	1263.60
861.37	1290.22
861.54	1318.89
861.71	1314.80
861.88	1318.89
862.05	1275.88
862.22	1296.36
862.39	1343.47
862.56	1267.69
862.73	1314.80
862.90	1273.84
863.07	1286.12
863.24	1300.46
863.41	1226.73
863.59	1265.64
863.76	1216.49
863.93	1214.45
864.10	1282.03
864.27	1308.65
864.44	1277.93
864.61	1316.84
864.78	1228.78
864.95	1322.99
865.12	1255.40
865.29	1312.75
865.46	1290.22
865.63	1263.60
865.80	1208.30
865.97	1277.93
866.14	1251.31
866.31	1294.32
866.48	1277.93
866.65	1298.41
866.82	1245.16
866.99	1320.94
867.16	1353.71
867.33	1294.32
867.50	1271.79
867.67	1316.84
867.84	1310.70
868.01	1310.70
868.18	1261.55
868.35	1273.84
868.52	1308.65
868.69	1265.64
868.86	1216.49
869.03	1279.98
869.20	1206.25
869.37	1273.84
869.54	1236.97
869.71	1236.97
869.88	1286.12
870.05	1341.42
870.22	1290.22
870.39	1282.03
870.56	1318.89
870.73	1306.60
870.90	1232.88
871.07	1292.27
871.24	1189.87
871.41	1337.32
871.58	1288.17
871.75	1302.51
871.92	1314.80
872.09	1322.99
872.26	1327.08
872.43	1234.93
872.60	1251.31
872.77	1267.69
872.94	1273.84
873.11	1210.35
873.28	1251.31
873.45	1234.93
873.62	1181.68
873.79	1259.50
873.96	1294.32
874.13	1300.46
874.30	1306.60
874.47	1273.84
874.64	1355.76
874.80	1232.88
874.97	1220.59
875.14	1294.32
875.31	1294.32
875.48	1265.64
875.65	1286.12
875.82	1306.60
875.99	1259.50
876.16	1290.22
876.33	1265.64
876.50	1165.29
876.67	1279.98
876.84	1261.55
877.01	1232.88
877.17	1306.60
877.34	1327.08
877.51	1249.26
877.68	1314.80
877.85	1236.97
878.02	1214.45
878.19	1163.25
878.36	1202.16
878.53	1298.41
878.70	1290.22
878.87	1255.40
879.03	1320.94
879.20	1284.08
879.37	1222.64
879.54	1259.50
879.71	1282.03
879.88	1267.69
880.05	1259.50
880.22	1265.64
880.39	1300.46
880.55	1329.13
880.72	1312.75
880.89	1265.64
881.06	1312.75
881.23	1306.60
881.40	1169.39
881.57	1376.24
881.74	1263.60
881.90	1230.83
882.07	1245.16
882.24	1282.03
882.41	1259.50
882.58	1320.94
882.75	1261.55
882.92	1263.60
883.08	1306.60
883.25	1234.93
883.42	1310.70
883.59	1198.06
883.76	1267.69
883.93	1255.40
884.09	1222.64
884.26	1216.49
884.43	1234.93
884.60	1191.92
884.77	1284.08
884.94	1273.84
885.10	1261.55
885.27	1265.64
885.44	1208.30
885.61	1366.00
885.78	1247.21
885.95	1286.12
886.11	1187.82
886.28	1269.74
886.45	1304.56
886.62	1312.75
886.79	1234.93
886.96	1273.84
887.12	1271.79
887.29	1339.37
887.46	1271.79
887.63	1284.08
887.80	1249.26
887.96	1245.16
888.13	1239.02
888.30	1253.36
888.47	1296.36
888.64	1243.12
888.80	1171.44
888.97	1263.60
889.14	1204.21
889.31	1290.22
889.47	1245.16
889.64	1257.45
889.81	1179.63
889.98	1300.46
890.15	1214.45
890.31	1253.36
890.48	1253.36
890.65	1253.36
890.82	1253.36
890.98	1253.36
891.15	1253.36
>>>>>End Processed Spectral Data<<<<<
