SpectraSuite Data File
++++++++++++++++++++++++++++++++++++
Date: Fri Jan 24 17:06:12 MST 2020
User: Molly
Dark Spectrum Present: Yes
Reference Spectrum Present: Yes
Number of Sampled Component Spectra: 1
Spectrometers: USB4E03280
Integration Time (usec): 32000 (USB4E03280)
Spectra Averaged: 1 (USB4E03280)
Boxcar Smoothing: 0 (USB4E03280)
Correct for Electrical Dark: No (USB4E03280)
Strobe/Lamp Enabled: Yes (USB4E03280)
Correct for Detector Non-linearity: No (USB4E03280)
Correct for Stray Light: No (USB4E03280)
Number of Pixels in Processed Spectrum: 3648
>>>>>Begin Processed Spectral Data<<<<<
177.66	1069.04
177.88	1069.04
178.10	1069.04
178.32	1222.64
178.54	1247.21
178.76	1265.64
178.98	1267.69
179.19	1286.12
179.41	1208.30
179.63	1218.54
179.85	1177.58
180.07	1177.58
180.29	1239.02
180.51	1245.16
180.72	1259.50
180.94	1228.78
181.16	1191.92
181.38	1255.40
181.60	1304.56
181.82	1216.49
182.04	1249.26
182.25	1257.45
182.47	1202.16
182.69	1308.65
182.91	1198.06
183.13	1243.12
183.35	1327.08
183.56	1271.79
183.78	1257.45
184.00	1124.33
184.22	1196.01
184.44	1187.82
184.66	1216.49
184.87	1236.97
185.09	1198.06
185.31	1138.67
185.53	1204.21
185.75	1177.58
185.97	1255.40
186.18	1204.21
186.40	1275.88
186.62	1259.50
186.84	1191.92
187.06	1222.64
187.28	1308.65
187.49	1275.88
187.71	1271.79
187.93	1300.46
188.15	1212.40
188.37	1222.64
188.59	1236.97
188.80	1202.16
189.02	1249.26
189.24	1290.22
189.46	1230.83
189.68	1257.45
189.89	1212.40
190.11	1171.44
190.33	1230.83
190.55	1230.83
190.77	1181.68
190.98	1187.82
191.20	1255.40
191.42	1241.07
191.64	1155.05
191.86	1255.40
192.07	1216.49
192.29	1159.15
192.51	1271.79
192.73	1210.35
192.95	1167.34
193.16	1216.49
193.38	1253.36
193.60	1249.26
193.82	1183.73
194.04	1142.77
194.25	1257.45
194.47	1218.54
194.69	1255.40
194.91	1267.69
195.13	1191.92
195.34	1200.11
195.56	1181.68
195.78	1140.72
196.00	1284.08
196.22	1286.12
196.43	1298.41
196.65	1220.59
196.87	1234.93
197.09	1234.93
197.30	1228.78
197.52	1353.71
197.74	1247.21
197.96	1245.16
198.18	1236.97
198.39	1216.49
198.61	1204.21
198.83	1218.54
199.05	1228.78
199.26	1228.78
199.48	1282.03
199.70	1198.06
199.92	1259.50
200.13	1198.06
200.35	1273.84
200.57	1224.69
200.79	1253.36
201.00	1277.93
201.22	1226.73
201.44	1253.36
201.66	1173.49
201.88	1167.34
202.09	1181.68
202.31	1191.92
202.53	1216.49
202.75	1169.39
202.96	1243.12
203.18	1243.12
203.40	1179.63
203.62	1261.55
203.83	1306.60
204.05	1279.98
204.27	1185.77
204.49	1181.68
204.70	1232.88
204.92	1177.58
205.14	1224.69
205.35	1220.59
205.57	1286.12
205.79	1263.60
206.01	1206.25
206.22	1204.21
206.44	1241.07
206.66	1232.88
206.88	1255.40
207.09	1275.88
207.31	1284.08
207.53	1200.11
207.75	1206.25
207.96	1247.21
208.18	1253.36
208.40	1265.64
208.61	1251.31
208.83	1243.12
209.05	1183.73
209.27	1267.69
209.48	1265.64
209.70	1329.13
209.92	1222.64
210.14	1228.78
210.35	1163.25
210.57	1325.04
210.79	1163.25
211.00	1245.16
211.22	1228.78
211.44	1290.22
211.66	1228.78
211.87	1224.69
212.09	1261.55
212.31	1171.44
212.52	1226.73
212.74	1191.92
212.96	1265.64
213.17	1208.30
213.39	1173.49
213.61	1169.39
213.83	1191.92
214.04	1261.55
214.26	1241.07
214.48	1245.16
214.69	1208.30
214.91	1269.74
215.13	1232.88
215.34	1187.82
215.56	1277.93
215.78	1263.60
216.00	1230.83
216.21	1218.54
216.43	1210.35
216.65	1179.63
216.86	1216.49
217.08	1222.64
217.30	1288.17
217.51	1236.97
217.73	1236.97
217.95	1239.02
218.16	1198.06
218.38	1302.51
218.60	1232.88
218.81	1245.16
219.03	1171.44
219.25	1243.12
219.46	1191.92
219.68	1212.40
219.90	1222.64
220.11	1302.51
220.33	1196.01
220.55	1134.57
220.76	1226.73
220.98	1167.34
221.20	1232.88
221.41	1234.93
221.63	1226.73
221.85	1212.40
222.06	1279.98
222.28	1218.54
222.50	1241.07
222.71	1255.40
222.93	1253.36
223.15	1200.11
223.36	1310.70
223.58	1292.27
223.80	1236.97
224.01	1150.96
224.23	1247.21
224.45	1269.74
224.66	1216.49
224.88	1220.59
225.10	1232.88
225.31	1236.97
225.53	1202.16
225.75	1228.78
225.96	1232.88
226.18	1214.45
226.39	1198.06
226.61	1232.88
226.83	1267.69
227.04	1165.29
227.26	1349.61
227.48	1337.32
227.69	1269.74
227.91	1228.78
228.13	1210.35
228.34	1267.69
228.56	1267.69
228.77	1198.06
228.99	1226.73
229.21	1253.36
229.42	1224.69
229.64	1257.45
229.86	1236.97
230.07	1273.84
230.29	1259.50
230.50	1226.73
230.72	1269.74
230.94	1263.60
231.15	1277.93
231.37	1282.03
231.58	1222.64
231.80	1259.50
232.02	1218.54
232.23	1249.26
232.45	1206.25
232.67	1202.16
232.88	1236.97
233.10	1288.17
233.31	1327.08
233.53	1234.93
233.75	1193.97
233.96	1232.88
234.18	1232.88
234.39	1167.34
234.61	1267.69
234.83	1239.02
235.04	1198.06
235.26	1253.36
235.47	1236.97
235.69	1222.64
235.91	1249.26
236.12	1228.78
236.34	1312.75
236.55	1196.01
236.77	1148.91
236.99	1261.55
237.20	1275.88
237.42	1275.88
237.63	1204.21
237.85	1269.74
238.06	1277.93
238.28	1218.54
238.50	1271.79
238.71	1171.44
238.93	1308.65
239.14	1257.45
239.36	1271.79
239.58	1263.60
239.79	1228.78
240.01	1226.73
240.22	1263.60
240.44	1282.03
240.65	1298.41
240.87	1265.64
241.09	1296.36
241.30	1216.49
241.52	1224.69
241.73	1275.88
241.95	1296.36
242.16	1196.01
242.38	1210.35
242.59	1200.11
242.81	1241.07
243.03	1245.16
243.24	1251.31
243.46	1177.58
243.67	1130.48
243.89	1230.83
244.10	1171.44
244.32	1204.21
244.53	1253.36
244.75	1202.16
244.97	1261.55
245.18	1259.50
245.40	1282.03
245.61	1196.01
245.83	1234.93
246.04	1251.31
246.26	1210.35
246.47	1249.26
246.69	1277.93
246.90	1277.93
247.12	1243.12
247.34	1210.35
247.55	1243.12
247.77	1173.49
247.98	1279.98
248.20	1196.01
248.41	1261.55
248.63	1181.68
248.84	1341.42
249.06	1196.01
249.27	1234.93
249.49	1239.02
249.70	1282.03
249.92	1173.49
250.13	1263.60
250.35	1224.69
250.56	1216.49
250.78	1247.21
251.00	1218.54
251.21	1234.93
251.43	1277.93
251.64	1200.11
251.86	1220.59
252.07	1259.50
252.29	1224.69
252.50	1241.07
252.72	1224.69
252.93	1308.65
253.15	1296.36
253.36	1286.12
253.58	1183.73
253.79	1255.40
254.01	1257.45
254.22	1171.44
254.44	1183.73
254.65	1171.44
254.87	1292.27
255.08	1198.06
255.30	1220.59
255.51	1187.82
255.73	1259.50
255.94	1284.08
256.16	1294.32
256.37	1175.53
256.59	1263.60
256.80	1153.01
257.02	1230.83
257.23	1230.83
257.45	1265.64
257.66	1175.53
257.88	1259.50
258.09	1204.21
258.31	1267.69
258.52	1187.82
258.74	1269.74
258.95	1171.44
259.16	1177.58
259.38	1165.29
259.59	1296.36
259.81	1253.36
260.02	1267.69
260.24	1183.73
260.45	1282.03
260.67	1228.78
260.88	1271.79
261.10	1279.98
261.31	1185.77
261.53	1234.93
261.74	1277.93
261.96	1159.15
262.17	1228.78
262.39	1226.73
262.60	1284.08
262.81	1251.31
263.03	1218.54
263.24	1216.49
263.46	1282.03
263.67	1265.64
263.89	1257.45
264.10	1187.82
264.32	1202.16
264.53	1214.45
264.75	1284.08
264.96	1191.92
265.17	1294.32
265.39	1208.30
265.60	1202.16
265.82	1218.54
266.03	1171.44
266.25	1271.79
266.46	1198.06
266.68	1253.36
266.89	1239.02
267.10	1196.01
267.32	1236.97
267.53	1243.12
267.75	1230.83
267.96	1298.41
268.18	1251.31
268.39	1241.07
268.61	1187.82
268.82	1218.54
269.03	1232.88
269.25	1234.93
269.46	1181.68
269.68	1228.78
269.89	1193.97
270.11	1228.78
270.32	1245.16
270.53	1222.64
270.75	1279.98
270.96	1310.70
271.18	1224.69
271.39	1224.69
271.60	1261.55
271.82	1206.25
272.03	1220.59
272.25	1150.96
272.46	1216.49
272.68	1249.26
272.89	1261.55
273.10	1204.21
273.32	1202.16
273.53	1236.97
273.75	1210.35
273.96	1286.12
274.17	1220.59
274.39	1247.21
274.60	1218.54
274.82	1210.35
275.03	1241.07
275.24	1298.41
275.46	1298.41
275.67	1241.07
275.89	1253.36
276.10	1202.16
276.31	1253.36
276.53	1226.73
276.74	1196.01
276.96	1310.70
277.17	1228.78
277.38	1222.64
277.60	1241.07
277.81	1241.07
278.02	1251.31
278.24	1279.98
278.45	1202.16
278.67	1134.57
278.88	1267.69
279.09	1132.53
279.31	1290.22
279.52	1220.59
279.73	1257.45
279.95	1257.45
280.16	1267.69
280.38	1185.77
280.59	1277.93
280.80	1236.97
281.02	1157.10
281.23	1220.59
281.44	1255.40
281.66	1224.69
281.87	1224.69
282.09	1198.06
282.30	1286.12
282.51	1232.88
282.73	1320.94
282.94	1175.53
283.15	1267.69
283.37	1275.88
283.58	1294.32
283.79	1224.69
284.01	1193.97
284.22	1249.26
284.43	1167.34
284.65	1206.25
284.86	1234.93
285.07	1198.06
285.29	1247.21
285.50	1263.60
285.72	1163.25
285.93	1234.93
286.14	1271.79
286.36	1265.64
286.57	1193.97
286.78	1234.93
287.00	1226.73
287.21	1265.64
287.42	1277.93
287.64	1286.12
287.85	1286.12
288.06	1220.59
288.28	1198.06
288.49	1230.83
288.70	1267.69
288.92	1212.40
289.13	1226.73
289.34	1216.49
289.56	1239.02
289.77	1183.73
289.98	1251.31
290.19	1210.35
290.41	1236.97
290.62	1261.55
290.83	1249.26
291.05	1208.30
291.26	1273.84
291.47	1269.74
291.69	1286.12
291.90	1236.97
292.11	1251.31
292.33	1251.31
292.54	1253.36
292.75	1191.92
292.97	1253.36
293.18	1222.64
293.39	1187.82
293.60	1265.64
293.82	1257.45
294.03	1216.49
294.24	1253.36
294.46	1241.07
294.67	1247.21
294.88	1241.07
295.10	1220.59
295.31	1193.97
295.52	1196.01
295.73	1202.16
295.95	1259.50
296.16	1165.29
296.37	1275.88
296.59	1150.96
296.80	1249.26
297.01	1331.18
297.22	1261.55
297.44	1312.75
297.65	1255.40
297.86	1232.88
298.08	1163.25
298.29	1236.97
298.50	1161.20
298.71	1249.26
298.93	1232.88
299.14	1251.31
299.35	1318.89
299.56	1222.64
299.78	1202.16
299.99	1282.03
300.20	1185.77
300.42	1216.49
300.63	1214.45
300.84	1216.49
301.05	1169.39
301.27	1245.16
301.48	1212.40
301.69	1259.50
301.90	1247.21
302.12	1167.34
302.33	1249.26
302.54	1208.30
302.75	1294.32
302.97	1243.12
303.18	1179.63
303.39	1175.53
303.60	1310.70
303.82	1325.04
304.03	1279.98
304.24	1273.84
304.45	1245.16
304.67	1239.02
304.88	1282.03
305.09	1253.36
305.30	1210.35
305.52	1228.78
305.73	1224.69
305.94	1230.83
306.15	1216.49
306.37	1314.80
306.58	1267.69
306.79	1193.97
307.00	1251.31
307.22	1191.92
307.43	1271.79
307.64	1253.36
307.85	1372.14
308.06	1255.40
308.28	1189.87
308.49	1318.89
308.70	1230.83
308.91	1245.16
309.13	1196.01
309.34	1208.30
309.55	1245.16
309.76	1282.03
309.97	1282.03
310.19	1196.01
310.40	1349.61
310.61	1198.06
310.82	1167.34
311.04	1279.98
311.25	1208.30
311.46	1245.16
311.67	1271.79
311.88	1150.96
312.10	1243.12
312.31	1228.78
312.52	1206.25
312.73	1277.93
312.94	1259.50
313.16	1279.98
313.37	1292.27
313.58	1208.30
313.79	1204.21
314.00	1269.74
314.22	1193.97
314.43	1236.97
314.64	1212.40
314.85	1267.69
315.06	1298.41
315.27	1251.31
315.49	1210.35
315.70	1236.97
315.91	1212.40
316.12	1153.01
316.33	1251.31
316.55	1292.27
316.76	1282.03
316.97	1210.35
317.18	1247.21
317.39	1273.84
317.60	1200.11
317.82	1253.36
318.03	1282.03
318.24	1224.69
318.45	1253.36
318.66	1228.78
318.88	1241.07
319.09	1273.84
319.30	1245.16
319.51	1267.69
319.72	1249.26
319.93	1290.22
320.15	1329.13
320.36	1302.51
320.57	1198.06
320.78	1208.30
320.99	1226.73
321.20	1255.40
321.41	1222.64
321.63	1265.64
321.84	1198.06
322.05	1208.30
322.26	1282.03
322.47	1220.59
322.68	1226.73
322.90	1249.26
323.11	1200.11
323.32	1228.78
323.53	1220.59
323.74	1251.31
323.95	1228.78
324.16	1277.93
324.38	1234.93
324.59	1247.21
324.80	1191.92
325.01	1269.74
325.22	1241.07
325.43	1245.16
325.64	1267.69
325.85	1298.41
326.07	1161.20
326.28	1181.68
326.49	1279.98
326.70	1232.88
326.91	1224.69
327.12	1253.36
327.33	1208.30
327.54	1210.35
327.76	1218.54
327.97	1363.95
328.18	1267.69
328.39	1177.58
328.60	1277.93
328.81	1163.25
329.02	1216.49
329.23	1218.54
329.45	1249.26
329.66	1208.30
329.87	1196.01
330.08	1255.40
330.29	1210.35
330.50	1228.78
330.71	1198.06
330.92	1191.92
331.13	1232.88
331.34	1185.77
331.56	1239.02
331.77	1210.35
331.98	1286.12
332.19	1204.21
332.40	1245.16
332.61	1165.29
332.82	1228.78
333.03	1234.93
333.24	1216.49
333.45	1236.97
333.67	1224.69
333.88	1196.01
334.09	1277.93
334.30	1212.40
334.51	1265.64
334.72	1198.06
334.93	1265.64
335.14	1236.97
335.35	1148.91
335.56	1253.36
335.77	1290.22
335.98	1275.88
336.19	1216.49
336.41	1214.45
336.62	1239.02
336.83	1185.77
337.04	1288.17
337.25	1245.16
337.46	1171.44
337.67	1185.77
337.88	1245.16
338.09	1271.79
338.30	1177.58
338.51	1253.36
338.72	1263.60
338.93	1230.83
339.14	1198.06
339.35	1155.05
339.57	1189.87
339.78	1187.82
339.99	1228.78
340.20	1200.11
340.41	1220.59
340.62	1202.16
340.83	1228.78
341.04	1251.31
341.25	1226.73
341.46	1269.74
341.67	1218.54
341.88	1261.55
342.09	1218.54
342.30	1290.22
342.51	1191.92
342.72	1234.93
342.93	1304.56
343.14	1202.16
343.35	1212.40
343.56	1208.30
343.77	1214.45
343.98	1259.50
344.19	1230.83
344.41	1218.54
344.62	1230.83
344.83	1249.26
345.04	1245.16
345.25	1175.53
345.46	1257.45
345.67	1200.11
345.88	1255.40
346.09	1230.83
346.30	1169.39
346.51	1126.38
346.72	1282.03
346.93	1169.39
347.14	1218.54
347.35	1224.69
347.56	1253.36
347.77	1202.16
347.98	1300.46
348.19	1255.40
348.40	1273.84
348.61	1216.49
348.82	1214.45
349.03	1279.98
349.24	1136.62
349.45	1273.84
349.66	1247.21
349.87	1259.50
350.08	1163.25
350.29	1253.36
350.50	1296.36
350.71	1267.69
350.92	1187.82
351.13	1296.36
351.34	1247.21
351.55	1200.11
351.76	1267.69
351.97	1208.30
352.18	1206.25
352.39	1202.16
352.60	1220.59
352.81	1236.97
353.02	1263.60
353.23	1216.49
353.44	1226.73
353.65	1153.01
353.86	1275.88
354.07	1183.73
354.28	1241.07
354.49	1177.58
354.70	1212.40
354.90	1179.63
355.11	1204.21
355.32	1308.65
355.53	1265.64
355.74	1243.12
355.95	1257.45
356.16	1218.54
356.37	1267.69
356.58	1257.45
356.79	1228.78
357.00	1208.30
357.21	1337.32
357.42	1193.97
357.63	1179.63
357.84	1200.11
358.05	1236.97
358.26	1261.55
358.47	1312.75
358.68	1212.40
358.89	1267.69
359.10	1198.06
359.31	1167.34
359.52	1130.48
359.73	1202.16
359.93	1277.93
360.14	1277.93
360.35	1243.12
360.56	1214.45
360.77	1191.92
360.98	1204.21
361.19	1234.93
361.40	1220.59
361.61	1288.17
361.82	1210.35
362.03	1163.25
362.24	1310.70
362.45	1218.54
362.66	1257.45
362.87	1226.73
363.07	1284.08
363.28	1212.40
363.49	1169.39
363.70	1245.16
363.91	1208.30
364.12	1224.69
364.33	1134.57
364.54	1222.64
364.75	1284.08
364.96	1335.28
365.17	1202.16
365.38	1302.51
365.58	1245.16
365.79	1232.88
366.00	1251.31
366.21	1179.63
366.42	1257.45
366.63	1230.83
366.84	1253.36
367.05	1165.29
367.26	1243.12
367.47	1226.73
367.67	1230.83
367.88	1187.82
368.09	1249.26
368.30	1161.20
368.51	1290.22
368.72	1224.69
368.93	1277.93
369.14	1261.55
369.35	1318.89
369.56	1249.26
369.76	1298.41
369.97	1257.45
370.18	1245.16
370.39	1214.45
370.60	1206.25
370.81	1200.11
371.02	1150.96
371.23	1232.88
371.43	1128.43
371.64	1214.45
371.85	1196.01
372.06	1208.30
372.27	1263.60
372.48	1251.31
372.69	1249.26
372.90	1261.55
373.10	1222.64
373.31	1251.31
373.52	1284.08
373.73	1243.12
373.94	1214.45
374.15	1212.40
374.36	1245.16
374.56	1228.78
374.77	1226.73
374.98	1212.40
375.19	1224.69
375.40	1179.63
375.61	1259.50
375.82	1259.50
376.02	1187.82
376.23	1253.36
376.44	1222.64
376.65	1243.12
376.86	1232.88
377.07	1165.29
377.28	1173.49
377.48	1167.34
377.69	1224.69
377.90	1214.45
378.11	1249.26
378.32	1245.16
378.53	1296.36
378.73	1198.06
378.94	1232.88
379.15	1212.40
379.36	1214.45
379.57	1312.75
379.78	1275.88
379.98	1175.53
380.19	1245.16
380.40	1218.54
380.61	1243.12
380.82	1187.82
381.03	1255.40
381.23	1165.29
381.44	1183.73
381.65	1265.64
381.86	1210.35
382.07	1257.45
382.27	1236.97
382.48	1165.29
382.69	1206.25
382.90	1359.85
383.11	1241.07
383.32	1220.59
383.52	1296.36
383.73	1302.51
383.94	1204.21
384.15	1241.07
384.36	1198.06
384.56	1241.07
384.77	1218.54
384.98	1290.22
385.19	1169.39
385.40	1200.11
385.60	1245.16
385.81	1132.53
386.02	1173.49
386.23	1198.06
386.43	1261.55
386.64	1269.74
386.85	1218.54
387.06	1251.31
387.27	1261.55
387.47	1212.40
387.68	1216.49
387.89	1236.97
388.10	1177.58
388.31	1226.73
388.51	1247.21
388.72	1259.50
388.93	1230.83
389.14	1275.88
389.34	1196.01
389.55	1241.07
389.76	1189.87
389.97	1210.35
390.18	1187.82
390.38	1218.54
390.59	1228.78
390.80	1232.88
391.01	1210.35
391.21	1183.73
391.42	1228.78
391.63	1296.36
391.84	1249.26
392.04	1193.97
392.25	1269.74
392.46	1202.16
392.67	1193.97
392.87	1196.01
393.08	1241.07
393.29	1275.88
393.50	1304.56
393.70	1208.30
393.91	1245.16
394.12	1191.92
394.33	1220.59
394.53	1216.49
394.74	1226.73
394.95	1204.21
395.16	1310.70
395.36	1214.45
395.57	1234.93
395.78	1157.10
395.99	1236.97
396.19	1204.21
396.40	1253.36
396.61	1155.05
396.81	1236.97
397.02	1167.34
397.23	1255.40
397.44	1257.45
397.64	1247.21
397.85	1239.02
398.06	1271.79
398.27	1183.73
398.47	1247.21
398.68	1189.87
398.89	1279.98
399.09	1202.16
399.30	1222.64
399.51	1224.69
399.72	1222.64
399.92	1249.26
400.13	1271.79
400.34	1198.06
400.54	1210.35
400.75	1284.08
400.96	1263.60
401.17	1245.16
401.37	1165.29
401.58	1220.59
401.79	1284.08
401.99	1257.45
402.20	1161.20
402.41	1214.45
402.61	1308.65
402.82	1216.49
403.03	1292.27
403.24	1222.64
403.44	1286.12
403.65	1196.01
403.86	1271.79
404.06	1279.98
404.27	1245.16
404.48	1261.55
404.68	1325.04
404.89	1261.55
405.10	1226.73
405.30	1173.49
405.51	1204.21
405.72	1255.40
405.92	1245.16
406.13	1136.62
406.34	1271.79
406.54	1218.54
406.75	1284.08
406.96	1261.55
407.16	1165.29
407.37	1191.92
407.58	1239.02
407.78	1204.21
407.99	1261.55
408.20	1245.16
408.40	1122.29
408.61	1202.16
408.82	1222.64
409.02	1232.88
409.23	1294.32
409.44	1208.30
409.64	1163.25
409.85	1220.59
410.06	1259.50
410.26	1271.79
410.47	1193.97
410.68	1204.21
410.88	1265.64
411.09	1222.64
411.30	1200.11
411.50	1284.08
411.71	1204.21
411.91	1249.26
412.12	1222.64
412.33	1204.21
412.53	1193.97
412.74	1261.55
412.95	1243.12
413.15	1204.21
413.36	1208.30
413.57	1255.40
413.77	1253.36
413.98	1206.25
414.18	1243.12
414.39	1163.25
414.60	1202.16
414.80	1259.50
415.01	1247.21
415.22	1193.97
415.42	1159.15
415.63	1163.25
415.83	1232.88
416.04	1222.64
416.25	1191.92
416.45	1236.97
416.66	1275.88
416.86	1222.64
417.07	1208.30
417.28	1228.78
417.48	1247.21
417.69	1230.83
417.89	1236.97
418.10	1153.01
418.31	1286.12
418.51	1224.69
418.72	1253.36
418.92	1191.92
419.13	1169.39
419.34	1224.69
419.54	1224.69
419.75	1171.44
419.95	1261.55
420.16	1232.88
420.37	1245.16
420.57	1224.69
420.78	1236.97
420.98	1202.16
421.19	1245.16
421.40	1212.40
421.60	1236.97
421.81	1325.04
422.01	1286.12
422.22	1265.64
422.42	1202.16
422.63	1236.97
422.84	1222.64
423.04	1175.53
423.25	1224.69
423.45	1224.69
423.66	1196.01
423.86	1245.16
424.07	1249.26
424.28	1314.80
424.48	1202.16
424.69	1288.17
424.89	1206.25
425.10	1189.87
425.30	1173.49
425.51	1187.82
425.72	1224.69
425.92	1163.25
426.13	1181.68
426.33	1263.60
426.54	1212.40
426.74	1191.92
426.95	1243.12
427.15	1275.88
427.36	1208.30
427.56	1196.01
427.77	1265.64
427.98	1187.82
428.18	1210.35
428.39	1224.69
428.59	1214.45
428.80	1198.06
429.00	1222.64
429.21	1245.16
429.41	1288.17
429.62	1271.79
429.82	1245.16
430.03	1261.55
430.23	1271.79
430.44	1243.12
430.65	1218.54
430.85	1206.25
431.06	1239.02
431.26	1204.21
431.47	1150.96
431.67	1163.25
431.88	1267.69
432.08	1277.93
432.29	1196.01
432.49	1245.16
432.70	1222.64
432.90	1275.88
433.11	1193.97
433.31	1228.78
433.52	1226.73
433.72	1206.25
433.93	1222.64
434.13	1234.93
434.34	1288.17
434.54	1243.12
434.75	1327.08
434.95	1185.77
435.16	1226.73
435.36	1179.63
435.57	1212.40
435.77	1243.12
435.98	1206.25
436.18	1198.06
436.39	1146.86
436.59	1187.82
436.80	1210.35
437.00	1214.45
437.21	1196.01
437.41	1230.83
437.62	1206.25
437.82	1273.84
438.03	1253.36
438.23	1181.68
438.44	1239.02
438.64	1196.01
438.85	1148.91
439.05	1216.49
439.25	1255.40
439.46	1255.40
439.66	1234.93
439.87	1230.83
440.07	1189.87
440.28	1173.49
440.48	1253.36
440.69	1249.26
440.89	1226.73
441.10	1214.45
441.30	1212.40
441.51	1198.06
441.71	1245.16
441.92	1204.21
442.12	1196.01
442.32	1191.92
442.53	1249.26
442.73	1232.88
442.94	1243.12
443.14	1275.88
443.35	1234.93
443.55	1239.02
443.76	1228.78
443.96	1193.97
444.16	1245.16
444.37	1243.12
444.57	1282.03
444.78	1245.16
444.98	1202.16
445.19	1212.40
445.39	1198.06
445.60	1196.01
445.80	1234.93
446.00	1296.36
446.21	1253.36
446.41	1206.25
446.62	1288.17
446.82	1167.34
447.03	1273.84
447.23	1196.01
447.43	1261.55
447.64	1214.45
447.84	1263.60
448.05	1179.63
448.25	1261.55
448.45	1243.12
448.66	1212.40
448.86	1198.06
449.07	1241.07
449.27	1284.08
449.48	1218.54
449.68	1206.25
449.88	1202.16
450.09	1269.74
450.29	1265.64
450.50	1187.82
450.70	1138.67
450.90	1267.69
451.11	1245.16
451.31	1191.92
451.52	1236.97
451.72	1241.07
451.92	1187.82
452.13	1306.60
452.33	1239.02
452.54	1216.49
452.74	1155.05
452.94	1277.93
453.15	1210.35
453.35	1224.69
453.55	1232.88
453.76	1167.34
453.96	1251.31
454.17	1247.21
454.37	1161.20
454.57	1241.07
454.78	1273.84
454.98	1255.40
455.19	1175.53
455.39	1243.12
455.59	1247.21
455.80	1171.44
456.00	1263.60
456.20	1167.34
456.41	1210.35
456.61	1243.12
456.81	1236.97
457.02	1183.73
457.22	1202.16
457.43	1200.11
457.63	1249.26
457.83	1226.73
458.04	1224.69
458.24	1232.88
458.44	1196.01
458.65	1230.83
458.85	1269.74
459.05	1286.12
459.26	1261.55
459.46	1202.16
459.66	1239.02
459.87	1167.34
460.07	1243.12
460.27	1220.59
460.48	1282.03
460.68	1282.03
460.88	1316.84
461.09	1279.98
461.29	1202.16
461.49	1216.49
461.70	1226.73
461.90	1220.59
462.10	1259.50
462.31	1284.08
462.51	1236.97
462.71	1265.64
462.92	1228.78
463.12	1208.30
463.32	1171.44
463.53	1218.54
463.73	1335.28
463.93	1228.78
464.14	1228.78
464.34	1236.97
464.54	1216.49
464.75	1243.12
464.95	1282.03
465.15	1273.84
465.36	1167.34
465.56	1159.15
465.76	1206.25
465.96	1241.07
466.17	1251.31
466.37	1290.22
466.57	1220.59
466.78	1261.55
466.98	1214.45
467.18	1198.06
467.39	1247.21
467.59	1226.73
467.79	1173.49
467.99	1228.78
468.20	1265.64
468.40	1275.88
468.60	1243.12
468.81	1304.56
469.01	1294.32
469.21	1228.78
469.41	1245.16
469.62	1245.16
469.82	1216.49
470.02	1196.01
470.23	1230.83
470.43	1167.34
470.63	1212.40
470.83	1202.16
471.04	1228.78
471.24	1210.35
471.44	1206.25
471.65	1161.20
471.85	1241.07
472.05	1243.12
472.25	1236.97
472.46	1251.31
472.66	1202.16
472.86	1222.64
473.06	1255.40
473.27	1306.60
473.47	1212.40
473.67	1243.12
473.87	1279.98
474.08	1243.12
474.28	1257.45
474.48	1255.40
474.68	1259.50
474.89	1232.88
475.09	1306.60
475.29	1241.07
475.49	1198.06
475.70	1222.64
475.90	1165.29
476.10	1189.87
476.30	1140.72
476.51	1220.59
476.71	1198.06
476.91	1202.16
477.11	1249.26
477.32	1222.64
477.52	1261.55
477.72	1290.22
477.92	1236.97
478.12	1224.69
478.33	1302.51
478.53	1241.07
478.73	1228.78
478.93	1333.23
479.14	1165.29
479.34	1298.41
479.54	1259.50
479.74	1257.45
479.94	1214.45
480.15	1161.20
480.35	1259.50
480.55	1263.60
480.75	1200.11
480.96	1236.97
481.16	1300.46
481.36	1269.74
481.56	1245.16
481.76	1302.51
481.97	1243.12
482.17	1232.88
482.37	1224.69
482.57	1239.02
482.77	1204.21
482.98	1183.73
483.18	1245.16
483.38	1169.39
483.58	1200.11
483.78	1202.16
483.98	1185.77
484.19	1236.97
484.39	1251.31
484.59	1239.02
484.79	1181.68
484.99	1198.06
485.20	1247.21
485.40	1277.93
485.60	1288.17
485.80	1275.88
486.00	1306.60
486.20	1222.64
486.41	1271.79
486.61	1245.16
486.81	1216.49
487.01	1187.82
487.21	1257.45
487.42	1200.11
487.62	1282.03
487.82	1206.25
488.02	1269.74
488.22	1216.49
488.42	1294.32
488.62	1212.40
488.83	1253.36
489.03	1257.45
489.23	1228.78
489.43	1185.77
489.63	1230.83
489.83	1292.27
490.04	1212.40
490.24	1230.83
490.44	1312.75
490.64	1175.53
490.84	1204.21
491.04	1185.77
491.24	1234.93
491.45	1267.69
491.65	1232.88
491.85	1222.64
492.05	1269.74
492.25	1171.44
492.45	1216.49
492.65	1241.07
492.86	1318.89
493.06	1210.35
493.26	1234.93
493.46	1239.02
493.66	1208.30
493.86	1247.21
494.06	1220.59
494.26	1204.21
494.47	1288.17
494.67	1265.64
494.87	1282.03
495.07	1316.84
495.27	1234.93
495.47	1236.97
495.67	1271.79
495.87	1198.06
496.07	1286.12
496.28	1224.69
496.48	1226.73
496.68	1259.50
496.88	1245.16
497.08	1232.88
497.28	1308.65
497.48	1206.25
497.68	1212.40
497.88	1181.68
498.08	1222.64
498.29	1284.08
498.49	1265.64
498.69	1255.40
498.89	1208.30
499.09	1257.45
499.29	1179.63
499.49	1191.92
499.69	1218.54
499.89	1271.79
500.09	1296.36
500.29	1261.55
500.50	1226.73
500.70	1169.39
500.90	1251.31
501.10	1177.58
501.30	1282.03
501.50	1175.53
501.70	1224.69
501.90	1224.69
502.10	1263.60
502.30	1247.21
502.50	1271.79
502.70	1220.59
502.90	1247.21
503.10	1171.44
503.31	1179.63
503.51	1247.21
503.71	1279.98
503.91	1243.12
504.11	1249.26
504.31	1183.73
504.51	1261.55
504.71	1236.97
504.91	1206.25
505.11	1263.60
505.31	1189.87
505.51	1222.64
505.71	1245.16
505.91	1288.17
506.11	1226.73
506.31	1230.83
506.51	1196.01
506.71	1230.83
506.91	1243.12
507.11	1230.83
507.31	1220.59
507.51	1239.02
507.72	1214.45
507.92	1279.98
508.12	1218.54
508.32	1157.10
508.52	1214.45
508.72	1261.55
508.92	1208.30
509.12	1261.55
509.32	1226.73
509.52	1249.26
509.72	1208.30
509.92	1218.54
510.12	1183.73
510.32	1222.64
510.52	1294.32
510.72	1234.93
510.92	1259.50
511.12	1271.79
511.32	1148.91
511.52	1300.46
511.72	1222.64
511.92	1206.25
512.12	1243.12
512.32	1196.01
512.52	1320.94
512.72	1177.58
512.92	1306.60
513.12	1275.88
513.32	1165.29
513.52	1271.79
513.72	1218.54
513.92	1210.35
514.12	1175.53
514.32	1230.83
514.52	1249.26
514.72	1275.88
514.92	1257.45
515.12	1269.74
515.32	1263.60
515.52	1228.78
515.72	1249.26
515.92	1228.78
516.12	1257.45
516.32	1214.45
516.52	1247.21
516.72	1310.70
516.92	1251.31
517.12	1253.36
517.32	1220.59
517.51	1224.69
517.71	1243.12
517.91	1214.45
518.11	1226.73
518.31	1300.46
518.51	1271.79
518.71	1189.87
518.91	1214.45
519.11	1214.45
519.31	1257.45
519.51	1185.77
519.71	1247.21
519.91	1247.21
520.11	1247.21
520.31	1232.88
520.51	1255.40
520.71	1320.94
520.91	1271.79
521.11	1284.08
521.31	1214.45
521.51	1218.54
521.70	1251.31
521.90	1208.30
522.10	1259.50
522.30	1181.68
522.50	1337.32
522.70	1169.39
522.90	1206.25
523.10	1236.97
523.30	1261.55
523.50	1290.22
523.70	1230.83
523.90	1259.50
524.10	1230.83
524.30	1232.88
524.49	1296.36
524.69	1249.26
524.89	1282.03
525.09	1271.79
525.29	1245.16
525.49	1208.30
525.69	1277.93
525.89	1196.01
526.09	1208.30
526.29	1275.88
526.49	1259.50
526.68	1316.84
526.88	1253.36
527.08	1259.50
527.28	1226.73
527.48	1220.59
527.68	1200.11
527.88	1218.54
528.08	1273.84
528.28	1269.74
528.48	1261.55
528.67	1230.83
528.87	1288.17
529.07	1245.16
529.27	1275.88
529.47	1200.11
529.67	1253.36
529.87	1282.03
530.07	1224.69
530.26	1212.40
530.46	1214.45
530.66	1277.93
530.86	1234.93
531.06	1243.12
531.26	1259.50
531.46	1275.88
531.66	1230.83
531.85	1273.84
532.05	1255.40
532.25	1282.03
532.45	1265.64
532.65	1304.56
532.85	1245.16
533.05	1255.40
533.25	1255.40
533.44	1286.12
533.64	1189.87
533.84	1271.79
534.04	1265.64
534.24	1263.60
534.44	1183.73
534.63	1282.03
534.83	1239.02
535.03	1234.93
535.23	1208.30
535.43	1361.90
535.63	1294.32
535.83	1304.56
536.02	1288.17
536.22	1263.60
536.42	1353.71
536.62	1236.97
536.82	1261.55
537.02	1277.93
537.21	1331.18
537.41	1269.74
537.61	1300.46
537.81	1384.43
538.01	1290.22
538.21	1300.46
538.40	1341.42
538.60	1245.16
538.80	1320.94
539.00	1357.80
539.20	1279.98
539.39	1306.60
539.59	1259.50
539.79	1310.70
539.99	1320.94
540.19	1345.52
540.39	1380.33
540.58	1431.53
540.78	1341.42
540.98	1359.85
541.18	1423.34
541.38	1447.91
541.57	1468.39
541.77	1359.85
541.97	1447.91
542.17	1527.78
542.37	1519.59
542.56	1404.91
542.76	1476.59
542.96	1452.01
543.16	1525.74
543.35	1464.30
543.55	1468.39
543.75	1478.63
543.95	1511.40
544.15	1392.62
544.34	1445.87
544.54	1464.30
544.74	1478.63
544.94	1605.61
545.14	1486.83
545.33	1488.87
545.53	1427.43
545.73	1452.01
545.93	1447.91
546.12	1353.71
546.32	1411.05
546.52	1427.43
546.72	1482.73
546.91	1378.28
547.11	1417.19
547.31	1380.33
547.51	1327.08
547.70	1327.08
547.90	1359.85
548.10	1394.67
548.30	1341.42
548.50	1341.42
548.69	1331.18
548.89	1372.14
549.09	1341.42
549.29	1427.43
549.48	1304.56
549.68	1380.33
549.88	1351.66
550.07	1347.56
550.27	1275.88
550.47	1282.03
550.67	1366.00
550.86	1279.98
551.06	1329.13
551.26	1243.12
551.46	1302.51
551.65	1347.56
551.85	1404.91
552.05	1341.42
552.25	1292.27
552.44	1316.84
552.64	1331.18
552.84	1363.95
553.03	1312.75
553.23	1310.70
553.43	1370.09
553.63	1300.46
553.82	1286.12
554.02	1378.28
554.22	1335.28
554.41	1277.93
554.61	1267.69
554.81	1413.10
555.01	1273.84
555.20	1304.56
555.40	1302.51
555.60	1320.94
555.79	1286.12
555.99	1232.88
556.19	1331.18
556.38	1257.45
556.58	1345.52
556.78	1224.69
556.98	1226.73
557.17	1308.65
557.37	1251.31
557.57	1275.88
557.76	1292.27
557.96	1292.27
558.16	1294.32
558.35	1259.50
558.55	1226.73
558.75	1273.84
558.94	1284.08
559.14	1208.30
559.34	1316.84
559.53	1277.93
559.73	1259.50
559.93	1327.08
560.12	1263.60
560.32	1253.36
560.52	1239.02
560.71	1351.66
560.91	1320.94
561.11	1243.12
561.30	1241.07
561.50	1339.37
561.70	1271.79
561.89	1212.40
562.09	1284.08
562.29	1294.32
562.48	1339.37
562.68	1284.08
562.88	1308.65
563.07	1284.08
563.27	1269.74
563.47	1341.42
563.66	1294.32
563.86	1251.31
564.06	1271.79
564.25	1310.70
564.45	1163.25
564.64	1382.38
564.84	1294.32
565.04	1212.40
565.23	1298.41
565.43	1304.56
565.63	1298.41
565.82	1273.84
566.02	1277.93
566.22	1343.47
566.41	1322.99
566.61	1271.79
566.80	1292.27
567.00	1257.45
567.20	1275.88
567.39	1249.26
567.59	1232.88
567.78	1206.25
567.98	1241.07
568.18	1286.12
568.37	1232.88
568.57	1318.89
568.77	1308.65
568.96	1300.46
569.16	1339.37
569.35	1298.41
569.55	1282.03
569.75	1310.70
569.94	1341.42
570.14	1351.66
570.33	1277.93
570.53	1245.16
570.73	1392.62
570.92	1288.17
571.12	1306.60
571.31	1286.12
571.51	1316.84
571.71	1257.45
571.90	1329.13
572.10	1261.55
572.29	1337.32
572.49	1288.17
572.68	1312.75
572.88	1306.60
573.08	1294.32
573.27	1376.24
573.47	1282.03
573.66	1343.47
573.86	1322.99
574.05	1257.45
574.25	1341.42
574.45	1345.52
574.64	1302.51
574.84	1269.74
575.03	1300.46
575.23	1288.17
575.42	1368.04
575.62	1322.99
575.82	1277.93
576.01	1366.00
576.21	1345.52
576.40	1351.66
576.60	1374.19
576.79	1341.42
576.99	1259.50
577.18	1226.73
577.38	1404.91
577.57	1312.75
577.77	1294.32
577.97	1304.56
578.16	1353.71
578.36	1292.27
578.55	1304.56
578.75	1378.28
578.94	1349.61
579.14	1386.47
579.33	1378.28
579.53	1329.13
579.72	1294.32
579.92	1370.09
580.11	1296.36
580.31	1382.38
580.50	1409.00
580.70	1376.24
580.90	1394.67
581.09	1318.89
581.29	1314.80
581.48	1398.76
581.68	1357.80
581.87	1378.28
582.07	1300.46
582.26	1351.66
582.46	1394.67
582.65	1355.76
582.85	1363.95
583.04	1316.84
583.24	1366.00
583.43	1368.04
583.63	1413.10
583.82	1380.33
584.02	1355.76
584.21	1366.00
584.41	1415.15
584.60	1353.71
584.80	1351.66
584.99	1325.04
585.19	1322.99
585.38	1363.95
585.58	1427.43
585.77	1402.86
585.97	1298.41
586.16	1390.57
586.35	1335.28
586.55	1415.15
586.74	1404.91
586.94	1398.76
587.13	1406.95
587.33	1380.33
587.52	1306.60
587.72	1357.80
587.91	1290.22
588.11	1357.80
588.30	1392.62
588.50	1316.84
588.69	1341.42
588.89	1363.95
589.08	1357.80
589.28	1331.18
589.47	1372.14
589.66	1282.03
589.86	1279.98
590.05	1425.39
590.25	1376.24
590.44	1271.79
590.64	1345.52
590.83	1304.56
591.03	1335.28
591.22	1290.22
591.41	1292.27
591.61	1329.13
591.80	1253.36
592.00	1357.80
592.19	1312.75
592.39	1413.10
592.58	1316.84
592.78	1411.05
592.97	1279.98
593.16	1284.08
593.36	1296.36
593.55	1331.18
593.75	1349.61
593.94	1370.09
594.14	1419.24
594.33	1316.84
594.52	1255.40
594.72	1296.36
594.91	1271.79
595.11	1292.27
595.30	1282.03
595.49	1306.60
595.69	1294.32
595.88	1290.22
596.08	1306.60
596.27	1286.12
596.47	1349.61
596.66	1380.33
596.85	1286.12
597.05	1304.56
597.24	1322.99
597.44	1357.80
597.63	1376.24
597.82	1294.32
598.02	1320.94
598.21	1349.61
598.40	1361.90
598.60	1380.33
598.79	1302.51
598.99	1269.74
599.18	1341.42
599.37	1308.65
599.57	1361.90
599.76	1300.46
599.96	1284.08
600.15	1335.28
600.34	1345.52
600.54	1236.97
600.73	1423.34
600.92	1239.02
601.12	1269.74
601.31	1302.51
601.51	1306.60
601.70	1298.41
601.89	1333.23
602.09	1316.84
602.28	1355.76
602.47	1292.27
602.67	1181.68
602.86	1269.74
603.05	1353.71
603.25	1269.74
603.44	1388.52
603.63	1331.18
603.83	1267.69
604.02	1241.07
604.22	1413.10
604.41	1380.33
604.60	1347.56
604.80	1320.94
604.99	1316.84
605.18	1341.42
605.38	1271.79
605.57	1314.80
605.76	1325.04
605.96	1312.75
606.15	1265.64
606.34	1269.74
606.54	1341.42
606.73	1306.60
606.92	1257.45
607.12	1224.69
607.31	1316.84
607.50	1343.47
607.70	1282.03
607.89	1269.74
608.08	1320.94
608.28	1282.03
608.47	1310.70
608.66	1361.90
608.85	1394.67
609.05	1390.57
609.24	1343.47
609.43	1409.00
609.63	1462.25
609.82	1531.88
610.01	1564.65
610.21	1515.50
610.40	1585.13
610.59	1535.98
610.79	1570.79
610.98	1474.54
611.17	1417.19
611.36	1425.39
611.56	1492.97
611.75	1370.09
611.94	1488.87
612.14	1458.15
612.33	1402.86
612.52	1421.29
612.71	1398.76
612.91	1415.15
613.10	1361.90
613.29	1439.72
613.49	1398.76
613.68	1433.58
613.87	1382.38
614.06	1384.43
614.26	1427.43
614.45	1320.94
614.64	1411.05
614.83	1302.51
615.03	1406.95
615.22	1441.77
615.41	1312.75
615.60	1273.84
615.80	1306.60
615.99	1269.74
616.18	1322.99
616.38	1247.21
616.57	1355.76
616.76	1310.70
616.95	1284.08
617.15	1318.89
617.34	1343.47
617.53	1286.12
617.72	1282.03
617.92	1294.32
618.11	1302.51
618.30	1302.51
618.49	1331.18
618.68	1279.98
618.88	1353.71
619.07	1327.08
619.26	1253.36
619.45	1320.94
619.65	1421.29
619.84	1351.66
620.03	1353.71
620.22	1349.61
620.42	1327.08
620.61	1300.46
620.80	1331.18
620.99	1286.12
621.18	1279.98
621.38	1345.52
621.57	1316.84
621.76	1355.76
621.95	1318.89
622.15	1335.28
622.34	1363.95
622.53	1292.27
622.72	1265.64
622.91	1325.04
623.11	1316.84
623.30	1382.38
623.49	1243.12
623.68	1325.04
623.87	1341.42
624.07	1380.33
624.26	1318.89
624.45	1396.71
624.64	1310.70
624.83	1320.94
625.03	1273.84
625.22	1286.12
625.41	1310.70
625.60	1314.80
625.79	1290.22
625.98	1429.48
626.18	1304.56
626.37	1318.89
626.56	1261.55
626.75	1314.80
626.94	1341.42
627.14	1282.03
627.33	1185.77
627.52	1284.08
627.71	1292.27
627.90	1302.51
628.09	1277.93
628.29	1327.08
628.48	1298.41
628.67	1343.47
628.86	1304.56
629.05	1331.18
629.24	1271.79
629.43	1267.69
629.63	1267.69
629.82	1226.73
630.01	1347.56
630.20	1349.61
630.39	1337.32
630.58	1331.18
630.78	1308.65
630.97	1259.50
631.16	1214.45
631.35	1288.17
631.54	1251.31
631.73	1261.55
631.92	1316.84
632.11	1300.46
632.31	1329.13
632.50	1292.27
632.69	1294.32
632.88	1230.83
633.07	1257.45
633.26	1314.80
633.45	1296.36
633.65	1222.64
633.84	1214.45
634.03	1279.98
634.22	1241.07
634.41	1245.16
634.60	1204.21
634.79	1275.88
634.98	1234.93
635.17	1236.97
635.37	1294.32
635.56	1239.02
635.75	1294.32
635.94	1253.36
636.13	1273.84
636.32	1286.12
636.51	1277.93
636.70	1255.40
636.89	1300.46
637.08	1269.74
637.28	1239.02
637.47	1251.31
637.66	1234.93
637.85	1294.32
638.04	1232.88
638.23	1210.35
638.42	1294.32
638.61	1308.65
638.80	1230.83
638.99	1236.97
639.18	1327.08
639.38	1226.73
639.57	1177.58
639.76	1318.89
639.95	1316.84
640.14	1277.93
640.33	1239.02
640.52	1325.04
640.71	1257.45
640.90	1210.35
641.09	1232.88
641.28	1255.40
641.47	1275.88
641.66	1247.21
641.85	1310.70
642.04	1226.73
642.24	1243.12
642.43	1255.40
642.62	1544.17
642.81	1236.97
643.00	1214.45
643.19	1275.88
643.38	1255.40
643.57	1249.26
643.76	1222.64
643.95	1216.49
644.14	1198.06
644.33	1228.78
644.52	1202.16
644.71	1308.65
644.90	1249.26
645.09	1259.50
645.28	1261.55
645.47	1269.74
645.66	1220.59
645.85	1232.88
646.04	1222.64
646.23	1148.91
646.42	1208.30
646.61	1187.82
646.80	1249.26
646.99	1230.83
647.18	1222.64
647.37	1216.49
647.56	1277.93
647.75	1284.08
647.95	1257.45
648.14	1198.06
648.33	1302.51
648.52	1189.87
648.71	1245.16
648.90	1200.11
649.09	1241.07
649.28	1212.40
649.47	1273.84
649.66	1261.55
649.85	1261.55
650.04	1261.55
650.23	1251.31
650.42	1308.65
650.61	1290.22
650.79	1245.16
650.98	1251.31
651.17	1241.07
651.36	1257.45
651.55	1212.40
651.74	1267.69
651.93	1206.25
652.12	1333.23
652.31	1249.26
652.50	1212.40
652.69	1216.49
652.88	1257.45
653.07	1183.73
653.26	1169.39
653.45	1292.27
653.64	1200.11
653.83	1230.83
654.02	1245.16
654.21	1257.45
654.40	1322.99
654.59	1173.49
654.78	1245.16
654.97	1294.32
655.16	1261.55
655.35	1255.40
655.54	1304.56
655.73	1224.69
655.92	1320.94
656.11	1308.65
656.30	1279.98
656.48	1228.78
656.67	1286.12
656.86	1263.60
657.05	1269.74
657.24	1234.93
657.43	1273.84
657.62	1273.84
657.81	1261.55
658.00	1218.54
658.19	1150.96
658.38	1224.69
658.57	1224.69
658.76	1318.89
658.95	1296.36
659.13	1261.55
659.32	1241.07
659.51	1222.64
659.70	1261.55
659.89	1247.21
660.08	1255.40
660.27	1204.21
660.46	1226.73
660.65	1290.22
660.84	1230.83
661.03	1210.35
661.22	1271.79
661.40	1327.08
661.59	1267.69
661.78	1288.17
661.97	1220.59
662.16	1196.01
662.35	1228.78
662.54	1241.07
662.73	1275.88
662.92	1288.17
663.11	1269.74
663.29	1292.27
663.48	1224.69
663.67	1296.36
663.86	1214.45
664.05	1245.16
664.24	1261.55
664.43	1234.93
664.62	1243.12
664.80	1271.79
664.99	1245.16
665.18	1282.03
665.37	1232.88
665.56	1255.40
665.75	1320.94
665.94	1288.17
666.13	1286.12
666.31	1218.54
666.50	1306.60
666.69	1249.26
666.88	1247.21
667.07	1273.84
667.26	1282.03
667.45	1181.68
667.63	1288.17
667.82	1228.78
668.01	1261.55
668.20	1234.93
668.39	1210.35
668.58	1191.92
668.76	1296.36
668.95	1284.08
669.14	1218.54
669.33	1288.17
669.52	1275.88
669.71	1210.35
669.90	1251.31
670.08	1214.45
670.27	1187.82
670.46	1243.12
670.65	1316.84
670.84	1224.69
671.03	1296.36
671.21	1327.08
671.40	1269.74
671.59	1228.78
671.78	1236.97
671.97	1232.88
672.15	1239.02
672.34	1253.36
672.53	1259.50
672.72	1265.64
672.91	1271.79
673.09	1247.21
673.28	1214.45
673.47	1296.36
673.66	1282.03
673.85	1312.75
674.04	1275.88
674.22	1257.45
674.41	1277.93
674.60	1331.18
674.79	1331.18
674.98	1196.01
675.16	1282.03
675.35	1271.79
675.54	1234.93
675.73	1275.88
675.91	1230.83
676.10	1269.74
676.29	1316.84
676.48	1296.36
676.67	1363.95
676.85	1234.93
677.04	1245.16
677.23	1265.64
677.42	1253.36
677.60	1234.93
677.79	1169.39
677.98	1236.97
678.17	1298.41
678.36	1243.12
678.54	1245.16
678.73	1292.27
678.92	1277.93
679.11	1269.74
679.29	1249.26
679.48	1261.55
679.67	1245.16
679.86	1222.64
680.04	1261.55
680.23	1263.60
680.42	1263.60
680.61	1241.07
680.79	1282.03
680.98	1263.60
681.17	1269.74
681.36	1339.37
681.54	1359.85
681.73	1204.21
681.92	1288.17
682.11	1284.08
682.29	1247.21
682.48	1296.36
682.67	1333.23
682.85	1308.65
683.04	1263.60
683.23	1298.41
683.42	1343.47
683.60	1290.22
683.79	1370.09
683.98	1368.04
684.17	1265.64
684.35	1179.63
684.54	1302.51
684.73	1255.40
684.91	1282.03
685.10	1271.79
685.29	1331.18
685.48	1298.41
685.66	1316.84
685.85	1322.99
686.04	1331.18
686.22	1351.66
686.41	1292.27
686.60	1349.61
686.78	1312.75
686.97	1312.75
687.16	1314.80
687.35	1368.04
687.53	1239.02
687.72	1263.60
687.91	1322.99
688.09	1279.98
688.28	1322.99
688.47	1253.36
688.65	1349.61
688.84	1255.40
689.03	1314.80
689.21	1302.51
689.40	1294.32
689.59	1355.76
689.77	1288.17
689.96	1279.98
690.15	1249.26
690.33	1318.89
690.52	1351.66
690.71	1425.39
690.89	1288.17
691.08	1316.84
691.27	1331.18
691.45	1263.60
691.64	1388.52
691.83	1286.12
692.01	1331.18
692.20	1331.18
692.39	1265.64
692.57	1304.56
692.76	1370.09
692.95	1220.59
693.13	1378.28
693.32	1390.57
693.50	1286.12
693.69	1298.41
693.88	1294.32
694.06	1296.36
694.25	1329.13
694.44	1277.93
694.62	1236.97
694.81	1310.70
695.00	1298.41
695.18	1318.89
695.37	1314.80
695.55	1312.75
695.74	1294.32
695.93	1325.04
696.11	1363.95
696.30	1363.95
696.49	1333.23
696.67	1294.32
696.86	1316.84
697.04	1343.47
697.23	1302.51
697.42	1325.04
697.60	1386.47
697.79	1302.51
697.97	1327.08
698.16	1339.37
698.35	1339.37
698.53	1343.47
698.72	1370.09
698.90	1282.03
699.09	1312.75
699.28	1376.24
699.46	1308.65
699.65	1333.23
699.83	1343.47
700.02	1357.80
700.21	1257.45
700.39	1390.57
700.58	1310.70
700.76	1384.43
700.95	1388.52
701.13	1357.80
701.32	1355.76
701.51	1413.10
701.69	1349.61
701.88	1370.09
702.06	1406.95
702.25	1288.17
702.43	1351.66
702.62	1339.37
702.81	1349.61
702.99	1349.61
703.18	1396.71
703.36	1359.85
703.55	1320.94
703.73	1361.90
703.92	1372.14
704.10	1374.19
704.29	1308.65
704.48	1417.19
704.66	1374.19
704.85	1341.42
705.03	1347.56
705.22	1345.52
705.40	1382.38
705.59	1384.43
705.77	1415.15
705.96	1374.19
706.14	1366.00
706.33	1363.95
706.51	1429.48
706.70	1456.11
706.89	1411.05
707.07	1372.14
707.26	1445.87
707.44	1439.72
707.63	1458.15
707.81	1402.86
708.00	1505.26
708.18	1409.00
708.37	1392.62
708.55	1404.91
708.74	1458.15
708.92	1361.90
709.11	1390.57
709.29	1355.76
709.48	1419.24
709.66	1361.90
709.85	1357.80
710.03	1355.76
710.22	1454.06
710.40	1366.00
710.59	1415.15
710.77	1353.71
710.96	1439.72
711.14	1404.91
711.33	1343.47
711.51	1433.58
711.70	1423.34
711.88	1460.20
712.07	1396.71
712.25	1394.67
712.44	1345.52
712.62	1404.91
712.81	1384.43
712.99	1320.94
713.18	1474.54
713.36	1351.66
713.54	1331.18
713.73	1335.28
713.91	1341.42
714.10	1411.05
714.28	1441.77
714.47	1353.71
714.65	1351.66
714.84	1355.76
715.02	1355.76
715.21	1368.04
715.39	1345.52
715.58	1376.24
715.76	1355.76
715.94	1347.56
716.13	1245.16
716.31	1372.14
716.50	1316.84
716.68	1339.37
716.87	1370.09
717.05	1443.82
717.24	1310.70
717.42	1363.95
717.60	1368.04
717.79	1382.38
717.97	1361.90
718.16	1247.21
718.34	1413.10
718.53	1333.23
718.71	1390.57
718.89	1398.76
719.08	1363.95
719.26	1392.62
719.45	1409.00
719.63	1339.37
719.82	1390.57
720.00	1386.47
720.18	1347.56
720.37	1394.67
720.55	1292.27
720.74	1288.17
720.92	1394.67
721.10	1368.04
721.29	1374.19
721.47	1368.04
721.66	1345.52
721.84	1355.76
722.02	1368.04
722.21	1370.09
722.39	1331.18
722.58	1370.09
722.76	1396.71
722.94	1435.63
723.13	1368.04
723.31	1398.76
723.50	1384.43
723.68	1372.14
723.86	1404.91
724.05	1322.99
724.23	1503.21
724.41	1312.75
724.60	1366.00
724.78	1372.14
724.97	1413.10
725.15	1431.53
725.33	1339.37
725.52	1368.04
725.70	1341.42
725.88	1423.34
726.07	1366.00
726.25	1361.90
726.44	1417.19
726.62	1417.19
726.80	1355.76
726.99	1361.90
727.17	1316.84
727.35	1454.06
727.54	1316.84
727.72	1316.84
727.90	1423.34
728.09	1382.38
728.27	1441.77
728.45	1384.43
728.64	1400.81
728.82	1333.23
729.00	1366.00
729.19	1300.46
729.37	1390.57
729.55	1404.91
729.74	1425.39
729.92	1366.00
730.10	1415.15
730.29	1368.04
730.47	1409.00
730.65	1343.47
730.84	1372.14
731.02	1398.76
731.20	1355.76
731.39	1284.08
731.57	1431.53
731.75	1335.28
731.94	1380.33
732.12	1292.27
732.30	1308.65
732.49	1419.24
732.67	1388.52
732.85	1454.06
733.03	1460.20
733.22	1374.19
733.40	1310.70
733.58	1400.81
733.77	1361.90
733.95	1376.24
734.13	1345.52
734.32	1400.81
734.50	1425.39
734.68	1437.67
734.86	1398.76
735.05	1404.91
735.23	1359.85
735.41	1304.56
735.60	1310.70
735.78	1411.05
735.96	1353.71
736.14	1310.70
736.33	1316.84
736.51	1437.67
736.69	1398.76
736.87	1396.71
737.06	1368.04
737.24	1402.86
737.42	1331.18
737.61	1423.34
737.79	1312.75
737.97	1386.47
738.15	1421.29
738.34	1390.57
738.52	1400.81
738.70	1335.28
738.88	1474.54
739.07	1314.80
739.25	1366.00
739.43	1347.56
739.61	1327.08
739.80	1374.19
739.98	1431.53
740.16	1433.58
740.34	1380.33
740.52	1437.67
740.71	1357.80
740.89	1368.04
741.07	1392.62
741.25	1353.71
741.44	1406.95
741.62	1392.62
741.80	1347.56
741.98	1386.47
742.17	1267.69
742.35	1425.39
742.53	1355.76
742.71	1396.71
742.89	1382.38
743.08	1361.90
743.26	1429.48
743.44	1294.32
743.62	1361.90
743.80	1366.00
743.99	1429.48
744.17	1445.87
744.35	1355.76
744.53	1355.76
744.71	1394.67
744.90	1523.69
745.08	1441.77
745.26	1337.32
745.44	1366.00
745.62	1357.80
745.81	1382.38
745.99	1384.43
746.17	1370.09
746.35	1423.34
746.53	1368.04
746.72	1392.62
746.90	1404.91
747.08	1314.80
747.26	1411.05
747.44	1411.05
747.62	1363.95
747.81	1370.09
747.99	1429.48
748.17	1415.15
748.35	1327.08
748.53	1409.00
748.71	1347.56
748.90	1329.13
749.08	1427.43
749.26	1441.77
749.44	1331.18
749.62	1386.47
749.80	1390.57
749.99	1363.95
750.17	1345.52
750.35	1425.39
750.53	1368.04
750.71	1425.39
750.89	1372.14
751.07	1382.38
751.26	1454.06
751.44	1394.67
751.62	1400.81
751.80	1306.60
751.98	1372.14
752.16	1376.24
752.34	1282.03
752.53	1406.95
752.71	1394.67
752.89	1368.04
753.07	1376.24
753.25	1425.39
753.43	1374.19
753.61	1339.37
753.79	1392.62
753.98	1421.29
754.16	1386.47
754.34	1449.96
754.52	1425.39
754.70	1339.37
754.88	1404.91
755.06	1400.81
755.24	1429.48
755.42	1400.81
755.60	1419.24
755.79	1439.72
755.97	1363.95
756.15	1339.37
756.33	1415.15
756.51	1413.10
756.69	1421.29
756.87	1462.25
757.05	1425.39
757.23	1363.95
757.41	1353.71
757.60	1482.73
757.78	1345.52
757.96	1388.52
758.14	1425.39
758.32	1409.00
758.50	1443.82
758.68	1404.91
758.86	1466.35
759.04	1445.87
759.22	1363.95
759.40	1474.54
759.58	1462.25
759.76	1378.28
759.94	1466.35
760.13	1400.81
760.31	1382.38
760.49	1437.67
760.67	1470.44
760.85	1380.33
761.03	1374.19
761.21	1421.29
761.39	1380.33
761.57	1388.52
761.75	1392.62
761.93	1429.48
762.11	1392.62
762.29	1370.09
762.47	1380.33
762.65	1443.82
762.83	1474.54
763.01	1419.24
763.19	1388.52
763.37	1472.49
763.55	1411.05
763.73	1460.20
763.91	1376.24
764.09	1460.20
764.27	1503.21
764.45	1452.01
764.64	1433.58
764.82	1456.11
765.00	1449.96
765.18	1476.59
765.36	1406.95
765.54	1456.11
765.72	1359.85
765.90	1417.19
766.08	1433.58
766.26	1396.71
766.44	1452.01
766.62	1359.85
766.80	1413.10
766.98	1462.25
767.16	1419.24
767.34	1394.67
767.52	1441.77
767.70	1470.44
767.88	1499.11
768.06	1433.58
768.24	1486.83
768.42	1492.97
768.60	1443.82
768.78	1388.52
768.96	1409.00
769.13	1433.58
769.31	1435.63
769.49	1472.49
769.67	1480.68
769.85	1548.26
770.03	1402.86
770.21	1454.06
770.39	1429.48
770.57	1441.77
770.75	1409.00
770.93	1464.30
771.11	1472.49
771.29	1466.35
771.47	1390.57
771.65	1460.20
771.83	1492.97
772.01	1411.05
772.19	1462.25
772.37	1361.90
772.55	1353.71
772.73	1388.52
772.91	1468.39
773.09	1425.39
773.27	1456.11
773.44	1382.38
773.62	1458.15
773.80	1392.62
773.98	1406.95
774.16	1454.06
774.34	1390.57
774.52	1417.19
774.70	1441.77
774.88	1447.91
775.06	1439.72
775.24	1456.11
775.42	1468.39
775.60	1425.39
775.78	1497.07
775.95	1429.48
776.13	1357.80
776.31	1392.62
776.49	1398.76
776.67	1398.76
776.85	1433.58
777.03	1474.54
777.21	1419.24
777.39	1333.23
777.57	1368.04
777.75	1413.10
777.92	1429.48
778.10	1413.10
778.28	1415.15
778.46	1441.77
778.64	1361.90
778.82	1351.66
779.00	1439.72
779.18	1419.24
779.36	1409.00
779.53	1363.95
779.71	1449.96
779.89	1370.09
780.07	1400.81
780.25	1355.76
780.43	1413.10
780.61	1411.05
780.79	1482.73
780.96	1460.20
781.14	1421.29
781.32	1445.87
781.50	1413.10
781.68	1402.86
781.86	1421.29
782.04	1417.19
782.21	1378.28
782.39	1368.04
782.57	1329.13
782.75	1374.19
782.93	1351.66
783.11	1398.76
783.29	1402.86
783.46	1413.10
783.64	1349.61
783.82	1415.15
784.00	1341.42
784.18	1372.14
784.36	1357.80
784.54	1384.43
784.71	1386.47
784.89	1425.39
785.07	1449.96
785.25	1404.91
785.43	1433.58
785.60	1374.19
785.78	1468.39
785.96	1449.96
786.14	1452.01
786.32	1449.96
786.50	1460.20
786.67	1366.00
786.85	1372.14
787.03	1392.62
787.21	1370.09
787.39	1345.52
787.56	1361.90
787.74	1386.47
787.92	1443.82
788.10	1372.14
788.28	1435.63
788.45	1361.90
788.63	1402.86
788.81	1470.44
788.99	1398.76
789.17	1398.76
789.34	1411.05
789.52	1392.62
789.70	1355.76
789.88	1363.95
790.06	1355.76
790.23	1425.39
790.41	1425.39
790.59	1380.33
790.77	1402.86
790.95	1409.00
791.12	1417.19
791.30	1304.56
791.48	1382.38
791.66	1361.90
791.83	1396.71
792.01	1372.14
792.19	1392.62
792.37	1341.42
792.54	1406.95
792.72	1355.76
792.90	1372.14
793.08	1466.35
793.25	1376.24
793.43	1411.05
793.61	1449.96
793.79	1449.96
793.96	1392.62
794.14	1411.05
794.32	1394.67
794.50	1503.21
794.67	1312.75
794.85	1374.19
795.03	1406.95
795.21	1396.71
795.38	1492.97
795.56	1419.24
795.74	1329.13
795.92	1382.38
796.09	1302.51
796.27	1388.52
796.45	1400.81
796.62	1376.24
796.80	1378.28
796.98	1374.19
797.16	1425.39
797.33	1359.85
797.51	1329.13
797.69	1343.47
797.86	1376.24
798.04	1421.29
798.22	1374.19
798.40	1347.56
798.57	1413.10
798.75	1368.04
798.93	1372.14
799.10	1421.29
799.28	1441.77
799.46	1368.04
799.63	1331.18
799.81	1329.13
799.99	1370.09
800.17	1363.95
800.34	1363.95
800.52	1419.24
800.70	1427.43
800.87	1361.90
801.05	1472.49
801.23	1386.47
801.40	1398.76
801.58	1394.67
801.76	1353.71
801.93	1374.19
802.11	1370.09
802.29	1415.15
802.46	1333.23
802.64	1368.04
802.82	1413.10
802.99	1388.52
803.17	1396.71
803.35	1337.32
803.52	1378.28
803.70	1282.03
803.88	1331.18
804.05	1294.32
804.23	1368.04
804.41	1404.91
804.58	1349.61
804.76	1353.71
804.94	1390.57
805.11	1413.10
805.29	1390.57
805.46	1380.33
805.64	1320.94
805.82	1413.10
805.99	1423.34
806.17	1339.37
806.35	1378.28
806.52	1343.47
806.70	1398.76
806.87	1351.66
807.05	1402.86
807.23	1443.82
807.40	1404.91
807.58	1413.10
807.76	1341.42
807.93	1349.61
808.11	1449.96
808.28	1341.42
808.46	1368.04
808.64	1353.71
808.81	1406.95
808.99	1341.42
809.16	1363.95
809.34	1339.37
809.52	1349.61
809.69	1370.09
809.87	1325.04
810.04	1322.99
810.22	1345.52
810.40	1335.28
810.57	1325.04
810.75	1361.90
810.92	1437.67
811.10	1300.46
811.28	1341.42
811.45	1368.04
811.63	1339.37
811.80	1333.23
811.98	1347.56
812.15	1333.23
812.33	1400.81
812.51	1345.52
812.68	1372.14
812.86	1370.09
813.03	1370.09
813.21	1331.18
813.38	1388.52
813.56	1376.24
813.74	1343.47
813.91	1353.71
814.09	1351.66
814.26	1372.14
814.44	1306.60
814.61	1245.16
814.79	1372.14
814.96	1314.80
815.14	1341.42
815.31	1427.43
815.49	1435.63
815.67	1345.52
815.84	1351.66
816.02	1339.37
816.19	1402.86
816.37	1415.15
816.54	1368.04
816.72	1380.33
816.89	1355.76
817.07	1411.05
817.24	1335.28
817.42	1339.37
817.59	1372.14
817.77	1378.28
817.94	1437.67
818.12	1404.91
818.29	1316.84
818.47	1370.09
818.64	1310.70
818.82	1374.19
818.99	1339.37
819.17	1353.71
819.34	1292.27
819.52	1378.28
819.69	1341.42
819.87	1349.61
820.04	1421.29
820.22	1312.75
820.39	1339.37
820.57	1423.34
820.74	1423.34
820.92	1331.18
821.09	1322.99
821.27	1349.61
821.44	1357.80
821.62	1290.22
821.79	1261.55
821.97	1329.13
822.14	1337.32
822.32	1339.37
822.49	1339.37
822.67	1292.27
822.84	1325.04
823.02	1304.56
823.19	1349.61
823.37	1310.70
823.54	1370.09
823.72	1355.76
823.89	1378.28
824.06	1425.39
824.24	1312.75
824.41	1421.29
824.59	1286.12
824.76	1394.67
824.94	1355.76
825.11	1331.18
825.29	1302.51
825.46	1396.71
825.63	1337.32
825.81	1368.04
825.98	1464.30
826.16	1273.84
826.33	1380.33
826.51	1271.79
826.68	1415.15
826.86	1372.14
827.03	1308.65
827.20	1411.05
827.38	1351.66
827.55	1474.54
827.73	1351.66
827.90	1288.17
828.07	1341.42
828.25	1304.56
828.42	1361.90
828.60	1327.08
828.77	1316.84
828.95	1345.52
829.12	1314.80
829.29	1273.84
829.47	1376.24
829.64	1306.60
829.82	1282.03
829.99	1370.09
830.16	1314.80
830.34	1300.46
830.51	1325.04
830.69	1308.65
830.86	1253.36
831.03	1322.99
831.21	1298.41
831.38	1341.42
831.55	1361.90
831.73	1361.90
831.90	1341.42
832.08	1402.86
832.25	1341.42
832.42	1382.38
832.60	1300.46
832.77	1386.47
832.94	1404.91
833.12	1322.99
833.29	1361.90
833.47	1378.28
833.64	1413.10
833.81	1355.76
833.99	1304.56
834.16	1279.98
834.33	1331.18
834.51	1329.13
834.68	1327.08
834.85	1347.56
835.03	1363.95
835.20	1318.89
835.37	1425.39
835.55	1327.08
835.72	1325.04
835.90	1300.46
836.07	1345.52
836.24	1343.47
836.42	1376.24
836.59	1277.93
836.76	1390.57
836.94	1378.28
837.11	1341.42
837.28	1359.85
837.46	1355.76
837.63	1275.88
837.80	1339.37
837.97	1322.99
838.15	1251.31
838.32	1300.46
838.49	1304.56
838.67	1333.23
838.84	1359.85
839.01	1368.04
839.19	1376.24
839.36	1294.32
839.53	1339.37
839.71	1366.00
839.88	1325.04
840.05	1267.69
840.22	1327.08
840.40	1331.18
840.57	1349.61
840.74	1296.36
840.92	1300.46
841.09	1357.80
841.26	1349.61
841.43	1322.99
841.61	1318.89
841.78	1306.60
841.95	1359.85
842.13	1263.60
842.30	1361.90
842.47	1298.41
842.64	1294.32
842.82	1370.09
842.99	1353.71
843.16	1351.66
843.34	1378.28
843.51	1255.40
843.68	1398.76
843.85	1368.04
844.03	1314.80
844.20	1286.12
844.37	1441.77
844.54	1288.17
844.72	1277.93
844.89	1386.47
845.06	1308.65
845.23	1257.45
845.41	1357.80
845.58	1312.75
845.75	1312.75
845.92	1349.61
846.10	1347.56
846.27	1269.74
846.44	1341.42
846.61	1312.75
846.78	1331.18
846.96	1306.60
847.13	1361.90
847.30	1351.66
847.47	1349.61
847.65	1296.36
847.82	1402.86
847.99	1316.84
848.16	1306.60
848.33	1304.56
848.51	1339.37
848.68	1306.60
848.85	1288.17
849.02	1296.36
849.19	1282.03
849.37	1361.90
849.54	1310.70
849.71	1273.84
849.88	1277.93
850.05	1386.47
850.23	1277.93
850.40	1322.99
850.57	1359.85
850.74	1331.18
850.91	1310.70
851.09	1312.75
851.26	1300.46
851.43	1302.51
851.60	1310.70
851.77	1345.52
851.95	1296.36
852.12	1341.42
852.29	1292.27
852.46	1314.80
852.63	1292.27
852.80	1318.89
852.98	1347.56
853.15	1382.38
853.32	1376.24
853.49	1255.40
853.66	1374.19
853.83	1271.79
854.01	1304.56
854.18	1325.04
854.35	1282.03
854.52	1298.41
854.69	1333.23
854.86	1325.04
855.03	1370.09
855.21	1314.80
855.38	1304.56
855.55	1339.37
855.72	1314.80
855.89	1312.75
856.06	1232.88
856.23	1376.24
856.41	1279.98
856.58	1275.88
856.75	1372.14
856.92	1400.81
857.09	1392.62
857.26	1271.79
857.43	1351.66
857.60	1302.51
857.78	1347.56
857.95	1349.61
858.12	1312.75
858.29	1288.17
858.46	1337.32
858.63	1302.51
858.80	1316.84
858.97	1370.09
859.14	1302.51
859.32	1316.84
859.49	1232.88
859.66	1363.95
859.83	1333.23
860.00	1337.32
860.17	1294.32
860.34	1255.40
860.51	1325.04
860.68	1351.66
860.85	1296.36
861.02	1275.88
861.20	1294.32
861.37	1239.02
861.54	1298.41
861.71	1267.69
861.88	1335.28
862.05	1331.18
862.22	1341.42
862.39	1290.22
862.56	1292.27
862.73	1249.26
862.90	1331.18
863.07	1331.18
863.24	1296.36
863.41	1292.27
863.59	1310.70
863.76	1286.12
863.93	1261.55
864.10	1343.47
864.27	1245.16
864.44	1296.36
864.61	1325.04
864.78	1300.46
864.95	1271.79
865.12	1302.51
865.29	1298.41
865.46	1271.79
865.63	1279.98
865.80	1374.19
865.97	1353.71
866.14	1282.03
866.31	1222.64
866.48	1259.50
866.65	1302.51
866.82	1267.69
866.99	1327.08
867.16	1366.00
867.33	1263.60
867.50	1363.95
867.67	1376.24
867.84	1255.40
868.01	1339.37
868.18	1267.69
868.35	1288.17
868.52	1292.27
868.69	1306.60
868.86	1312.75
869.03	1263.60
869.20	1331.18
869.37	1312.75
869.54	1261.55
869.71	1284.08
869.88	1282.03
870.05	1382.38
870.22	1288.17
870.39	1284.08
870.56	1284.08
870.73	1314.80
870.90	1279.98
871.07	1345.52
871.24	1374.19
871.41	1261.55
871.58	1316.84
871.75	1294.32
871.92	1325.04
872.09	1335.28
872.26	1253.36
872.43	1277.93
872.60	1282.03
872.77	1320.94
872.94	1277.93
873.11	1419.24
873.28	1355.76
873.45	1277.93
873.62	1284.08
873.79	1282.03
873.96	1284.08
874.13	1288.17
874.30	1214.45
874.47	1267.69
874.64	1318.89
874.80	1292.27
874.97	1310.70
875.14	1325.04
875.31	1302.51
875.48	1253.36
875.65	1359.85
875.82	1318.89
875.99	1234.93
876.16	1218.54
876.33	1320.94
876.50	1300.46
876.67	1269.74
876.84	1361.90
877.01	1347.56
877.17	1288.17
877.34	1292.27
877.51	1261.55
877.68	1226.73
877.85	1318.89
878.02	1310.70
878.19	1320.94
878.36	1325.04
878.53	1267.69
878.70	1327.08
878.87	1255.40
879.03	1255.40
879.20	1353.71
879.37	1302.51
879.54	1327.08
879.71	1300.46
879.88	1245.16
880.05	1224.69
880.22	1257.45
880.39	1322.99
880.55	1294.32
880.72	1251.31
880.89	1355.76
881.06	1255.40
881.23	1263.60
881.40	1327.08
881.57	1331.18
881.74	1216.49
881.90	1300.46
882.07	1351.66
882.24	1296.36
882.41	1296.36
882.58	1200.11
882.75	1353.71
882.92	1318.89
883.08	1269.74
883.25	1282.03
883.42	1294.32
883.59	1230.83
883.76	1284.08
883.93	1316.84
884.09	1222.64
884.26	1300.46
884.43	1298.41
884.60	1265.64
884.77	1277.93
884.94	1322.99
885.10	1261.55
885.27	1304.56
885.44	1247.21
885.61	1234.93
885.78	1318.89
885.95	1265.64
886.11	1198.06
886.28	1261.55
886.45	1292.27
886.62	1316.84
886.79	1245.16
886.96	1304.56
887.12	1255.40
887.29	1308.65
887.46	1241.07
887.63	1279.98
887.80	1288.17
887.96	1247.21
888.13	1292.27
888.30	1318.89
888.47	1316.84
888.64	1263.60
888.80	1261.55
888.97	1230.83
889.14	1267.69
889.31	1218.54
889.47	1284.08
889.64	1298.41
889.81	1284.08
889.98	1286.12
890.15	1282.03
890.31	1335.28
890.48	1335.28
890.65	1335.28
890.82	1335.28
890.98	1335.28
891.15	1335.28
>>>>>End Processed Spectral Data<<<<<
