SpectraSuite Data File
++++++++++++++++++++++++++++++++++++
Date: Fri Jan 24 17:04:44 MST 2020
User: Molly
Dark Spectrum Present: Yes
Reference Spectrum Present: Yes
Number of Sampled Component Spectra: 1
Spectrometers: USB4E03280
Integration Time (usec): 32000 (USB4E03280)
Spectra Averaged: 1 (USB4E03280)
Boxcar Smoothing: 0 (USB4E03280)
Correct for Electrical Dark: No (USB4E03280)
Strobe/Lamp Enabled: Yes (USB4E03280)
Correct for Detector Non-linearity: No (USB4E03280)
Correct for Stray Light: No (USB4E03280)
Number of Pixels in Processed Spectrum: 3648
>>>>>Begin Processed Spectral Data<<<<<
177.66	1105.90
177.88	1105.90
178.10	1105.90
178.32	1191.92
178.54	1236.97
178.76	1208.30
178.98	1220.59
179.19	1236.97
179.41	1189.87
179.63	1226.73
179.85	1200.11
180.07	1208.30
180.29	1286.12
180.51	1206.25
180.72	1255.40
180.94	1290.22
181.16	1189.87
181.38	1171.44
181.60	1206.25
181.82	1239.02
182.04	1265.64
182.25	1222.64
182.47	1206.25
182.69	1275.88
182.91	1202.16
183.13	1212.40
183.35	1228.78
183.56	1210.35
183.78	1220.59
184.00	1228.78
184.22	1234.93
184.44	1222.64
184.66	1304.56
184.87	1241.07
185.09	1284.08
185.31	1241.07
185.53	1273.84
185.75	1148.91
185.97	1288.17
186.18	1181.68
186.40	1245.16
186.62	1269.74
186.84	1212.40
187.06	1273.84
187.28	1222.64
187.49	1275.88
187.71	1318.89
187.93	1193.97
188.15	1177.58
188.37	1257.45
188.59	1292.27
188.80	1220.59
189.02	1208.30
189.24	1294.32
189.46	1177.58
189.68	1228.78
189.89	1202.16
190.11	1214.45
190.33	1202.16
190.55	1226.73
190.77	1257.45
190.98	1275.88
191.20	1261.55
191.42	1216.49
191.64	1294.32
191.86	1241.07
192.07	1208.30
192.29	1239.02
192.51	1175.53
192.73	1251.31
192.95	1243.12
193.16	1243.12
193.38	1271.79
193.60	1179.63
193.82	1241.07
194.04	1245.16
194.25	1193.97
194.47	1204.21
194.69	1193.97
194.91	1273.84
195.13	1294.32
195.34	1288.17
195.56	1263.60
195.78	1136.62
196.00	1142.77
196.22	1273.84
196.43	1273.84
196.65	1267.69
196.87	1212.40
197.09	1296.36
197.30	1216.49
197.52	1230.83
197.74	1224.69
197.96	1245.16
198.18	1282.03
198.39	1228.78
198.61	1202.16
198.83	1245.16
199.05	1284.08
199.26	1226.73
199.48	1273.84
199.70	1269.74
199.92	1196.01
200.13	1271.79
200.35	1198.06
200.57	1269.74
200.79	1245.16
201.00	1282.03
201.22	1265.64
201.44	1214.45
201.66	1306.60
201.88	1239.02
202.09	1218.54
202.31	1277.93
202.53	1290.22
202.75	1239.02
202.96	1271.79
203.18	1181.68
203.40	1310.70
203.62	1228.78
203.83	1273.84
204.05	1255.40
204.27	1322.99
204.49	1239.02
204.70	1234.93
204.92	1193.97
205.14	1214.45
205.35	1277.93
205.57	1316.84
205.79	1302.51
206.01	1234.93
206.22	1193.97
206.44	1226.73
206.66	1175.53
206.88	1236.97
207.09	1232.88
207.31	1198.06
207.53	1243.12
207.75	1196.01
207.96	1236.97
208.18	1241.07
208.40	1226.73
208.61	1245.16
208.83	1220.59
209.05	1251.31
209.27	1202.16
209.48	1234.93
209.70	1243.12
209.92	1208.30
210.14	1193.97
210.35	1165.29
210.57	1302.51
210.79	1228.78
211.00	1177.58
211.22	1196.01
211.44	1171.44
211.66	1267.69
211.87	1243.12
212.09	1269.74
212.31	1257.45
212.52	1290.22
212.74	1196.01
212.96	1265.64
213.17	1196.01
213.39	1316.84
213.61	1232.88
213.83	1261.55
214.04	1171.44
214.26	1259.50
214.48	1171.44
214.69	1304.56
214.91	1206.25
215.13	1245.16
215.34	1204.21
215.56	1226.73
215.78	1236.97
216.00	1228.78
216.21	1234.93
216.43	1265.64
216.65	1245.16
216.86	1161.20
217.08	1212.40
217.30	1298.41
217.51	1263.60
217.73	1247.21
217.95	1243.12
218.16	1253.36
218.38	1267.69
218.60	1232.88
218.81	1183.73
219.03	1226.73
219.25	1284.08
219.46	1236.97
219.68	1218.54
219.90	1218.54
220.11	1247.21
220.33	1189.87
220.55	1288.17
220.76	1257.45
220.98	1282.03
221.20	1273.84
221.41	1269.74
221.63	1249.26
221.85	1259.50
222.06	1290.22
222.28	1298.41
222.50	1255.40
222.71	1271.79
222.93	1220.59
223.15	1277.93
223.36	1279.98
223.58	1163.25
223.80	1222.64
224.01	1216.49
224.23	1253.36
224.45	1273.84
224.66	1257.45
224.88	1234.93
225.10	1185.77
225.31	1161.20
225.53	1265.64
225.75	1259.50
225.96	1275.88
226.18	1220.59
226.39	1218.54
226.61	1294.32
226.83	1279.98
227.04	1208.30
227.26	1271.79
227.48	1335.28
227.69	1241.07
227.91	1196.01
228.13	1228.78
228.34	1234.93
228.56	1216.49
228.77	1214.45
228.99	1214.45
229.21	1239.02
229.42	1267.69
229.64	1187.82
229.86	1243.12
230.07	1259.50
230.29	1298.41
230.50	1177.58
230.72	1224.69
230.94	1245.16
231.15	1284.08
231.37	1245.16
231.58	1267.69
231.80	1234.93
232.02	1243.12
232.23	1273.84
232.45	1230.83
232.67	1234.93
232.88	1218.54
233.10	1232.88
233.31	1173.49
233.53	1245.16
233.75	1222.64
233.96	1216.49
234.18	1247.21
234.39	1196.01
234.61	1253.36
234.83	1177.58
235.04	1196.01
235.26	1198.06
235.47	1187.82
235.69	1241.07
235.91	1220.59
236.12	1245.16
236.34	1290.22
236.55	1236.97
236.77	1218.54
236.99	1224.69
237.20	1220.59
237.42	1243.12
237.63	1232.88
237.85	1220.59
238.06	1275.88
238.28	1204.21
238.50	1312.75
238.71	1171.44
238.93	1302.51
239.14	1181.68
239.36	1253.36
239.58	1263.60
239.79	1202.16
240.01	1257.45
240.22	1288.17
240.44	1173.49
240.65	1222.64
240.87	1249.26
241.09	1177.58
241.30	1243.12
241.52	1263.60
241.73	1210.35
241.95	1308.65
242.16	1196.01
242.38	1263.60
242.59	1189.87
242.81	1243.12
243.03	1251.31
243.24	1253.36
243.46	1261.55
243.67	1163.25
243.89	1282.03
244.10	1234.93
244.32	1230.83
244.53	1228.78
244.75	1196.01
244.97	1245.16
245.18	1271.79
245.40	1243.12
245.61	1236.97
245.83	1224.69
246.04	1267.69
246.26	1165.29
246.47	1263.60
246.69	1222.64
246.90	1275.88
247.12	1181.68
247.34	1296.36
247.55	1298.41
247.77	1171.44
247.98	1234.93
248.20	1267.69
248.41	1230.83
248.63	1208.30
248.84	1230.83
249.06	1267.69
249.27	1210.35
249.49	1177.58
249.70	1251.31
249.92	1212.40
250.13	1263.60
250.35	1230.83
250.56	1236.97
250.78	1261.55
251.00	1290.22
251.21	1259.50
251.43	1198.06
251.64	1257.45
251.86	1253.36
252.07	1253.36
252.29	1208.30
252.50	1185.77
252.72	1273.84
252.93	1208.30
253.15	1275.88
253.36	1267.69
253.58	1239.02
253.79	1261.55
254.01	1325.04
254.22	1263.60
254.44	1241.07
254.65	1243.12
254.87	1175.53
255.08	1228.78
255.30	1222.64
255.51	1220.59
255.73	1236.97
255.94	1171.44
256.16	1290.22
256.37	1236.97
256.59	1325.04
256.80	1269.74
257.02	1232.88
257.23	1232.88
257.45	1277.93
257.66	1306.60
257.88	1216.49
258.09	1210.35
258.31	1206.25
258.52	1212.40
258.74	1243.12
258.95	1257.45
259.16	1200.11
259.38	1271.79
259.59	1306.60
259.81	1216.49
260.02	1269.74
260.24	1257.45
260.45	1351.66
260.67	1290.22
260.88	1279.98
261.10	1263.60
261.31	1253.36
261.53	1230.83
261.74	1284.08
261.96	1232.88
262.17	1187.82
262.39	1146.86
262.60	1220.59
262.81	1220.59
263.03	1216.49
263.24	1204.21
263.46	1275.88
263.67	1277.93
263.89	1308.65
264.10	1222.64
264.32	1193.97
264.53	1304.56
264.75	1316.84
264.96	1239.02
265.17	1181.68
265.39	1226.73
265.60	1226.73
265.82	1189.87
266.03	1222.64
266.25	1298.41
266.46	1259.50
266.68	1271.79
266.89	1230.83
267.10	1239.02
267.32	1239.02
267.53	1259.50
267.75	1157.10
267.96	1277.93
268.18	1304.56
268.39	1253.36
268.61	1165.29
268.82	1212.40
269.03	1177.58
269.25	1236.97
269.46	1236.97
269.68	1200.11
269.89	1191.92
270.11	1294.32
270.32	1306.60
270.53	1116.14
270.75	1265.64
270.96	1204.21
271.18	1239.02
271.39	1153.01
271.60	1251.31
271.82	1253.36
272.03	1296.36
272.25	1220.59
272.46	1234.93
272.68	1251.31
272.89	1290.22
273.10	1228.78
273.32	1261.55
273.53	1185.77
273.75	1200.11
273.96	1216.49
274.17	1271.79
274.39	1236.97
274.60	1165.29
274.82	1265.64
275.03	1234.93
275.24	1282.03
275.46	1245.16
275.67	1275.88
275.89	1306.60
276.10	1296.36
276.31	1306.60
276.53	1288.17
276.74	1296.36
276.96	1226.73
277.17	1224.69
277.38	1241.07
277.60	1325.04
277.81	1236.97
278.02	1257.45
278.24	1202.16
278.45	1206.25
278.67	1263.60
278.88	1210.35
279.09	1241.07
279.31	1279.98
279.52	1187.82
279.73	1263.60
279.95	1161.20
280.16	1239.02
280.38	1271.79
280.59	1286.12
280.80	1282.03
281.02	1257.45
281.23	1255.40
281.44	1230.83
281.66	1226.73
281.87	1271.79
282.09	1216.49
282.30	1212.40
282.51	1269.74
282.73	1277.93
282.94	1230.83
283.15	1191.92
283.37	1241.07
283.58	1234.93
283.79	1243.12
284.01	1255.40
284.22	1187.82
284.43	1290.22
284.65	1210.35
284.86	1212.40
285.07	1259.50
285.29	1210.35
285.50	1128.43
285.72	1239.02
285.93	1222.64
286.14	1247.21
286.36	1204.21
286.57	1275.88
286.78	1187.82
287.00	1212.40
287.21	1189.87
287.42	1220.59
287.64	1212.40
287.85	1282.03
288.06	1282.03
288.28	1290.22
288.49	1181.68
288.70	1239.02
288.92	1224.69
289.13	1224.69
289.34	1228.78
289.56	1251.31
289.77	1247.21
289.98	1204.21
290.19	1267.69
290.41	1165.29
290.62	1232.88
290.83	1302.51
291.05	1247.21
291.26	1224.69
291.47	1200.11
291.69	1284.08
291.90	1177.58
292.11	1189.87
292.33	1251.31
292.54	1239.02
292.75	1150.96
292.97	1249.26
293.18	1243.12
293.39	1214.45
293.60	1214.45
293.82	1220.59
294.03	1196.01
294.24	1228.78
294.46	1216.49
294.67	1228.78
294.88	1218.54
295.10	1232.88
295.31	1292.27
295.52	1265.64
295.73	1161.20
295.95	1212.40
296.16	1216.49
296.37	1265.64
296.59	1265.64
296.80	1296.36
297.01	1267.69
297.22	1216.49
297.44	1222.64
297.65	1265.64
297.86	1249.26
298.08	1239.02
298.29	1304.56
298.50	1361.90
298.71	1204.21
298.93	1263.60
299.14	1218.54
299.35	1249.26
299.56	1230.83
299.78	1284.08
299.99	1239.02
300.20	1212.40
300.42	1253.36
300.63	1241.07
300.84	1236.97
301.05	1226.73
301.27	1243.12
301.48	1243.12
301.69	1200.11
301.90	1251.31
302.12	1198.06
302.33	1322.99
302.54	1257.45
302.75	1196.01
302.97	1228.78
303.18	1359.85
303.39	1214.45
303.60	1204.21
303.82	1222.64
304.03	1251.31
304.24	1271.79
304.45	1179.63
304.67	1150.96
304.88	1222.64
305.09	1255.40
305.30	1216.49
305.52	1167.34
305.73	1187.82
305.94	1263.60
306.15	1269.74
306.37	1284.08
306.58	1310.70
306.79	1267.69
307.00	1306.60
307.22	1245.16
307.43	1165.29
307.64	1224.69
307.85	1279.98
308.06	1251.31
308.28	1196.01
308.49	1150.96
308.70	1265.64
308.91	1236.97
309.13	1200.11
309.34	1222.64
309.55	1306.60
309.76	1204.21
309.97	1277.93
310.19	1202.16
310.40	1292.27
310.61	1230.83
310.82	1251.31
311.04	1224.69
311.25	1214.45
311.46	1251.31
311.67	1191.92
311.88	1224.69
312.10	1234.93
312.31	1263.60
312.52	1261.55
312.73	1204.21
312.94	1234.93
313.16	1222.64
313.37	1245.16
313.58	1288.17
313.79	1193.97
314.00	1255.40
314.22	1243.12
314.43	1216.49
314.64	1288.17
314.85	1196.01
315.06	1212.40
315.27	1263.60
315.49	1202.16
315.70	1255.40
315.91	1202.16
316.12	1236.97
316.33	1222.64
316.55	1271.79
316.76	1191.92
316.97	1247.21
317.18	1314.80
317.39	1226.73
317.60	1306.60
317.82	1247.21
318.03	1232.88
318.24	1255.40
318.45	1259.50
318.66	1275.88
318.88	1193.97
319.09	1232.88
319.30	1265.64
319.51	1298.41
319.72	1159.15
319.93	1181.68
320.15	1288.17
320.36	1269.74
320.57	1273.84
320.78	1251.31
320.99	1269.74
321.20	1159.15
321.41	1251.31
321.63	1196.01
321.84	1204.21
322.05	1251.31
322.26	1298.41
322.47	1220.59
322.68	1173.49
322.90	1220.59
323.11	1232.88
323.32	1263.60
323.53	1228.78
323.74	1243.12
323.95	1310.70
324.16	1239.02
324.38	1267.69
324.59	1243.12
324.80	1204.21
325.01	1191.92
325.22	1337.32
325.43	1206.25
325.64	1224.69
325.85	1222.64
326.07	1251.31
326.28	1241.07
326.49	1255.40
326.70	1216.49
326.91	1236.97
327.12	1169.39
327.33	1204.21
327.54	1210.35
327.76	1228.78
327.97	1286.12
328.18	1187.82
328.39	1251.31
328.60	1189.87
328.81	1232.88
329.02	1230.83
329.23	1247.21
329.45	1304.56
329.66	1277.93
329.87	1171.44
330.08	1255.40
330.29	1253.36
330.50	1261.55
330.71	1279.98
330.92	1300.46
331.13	1234.93
331.34	1191.92
331.56	1265.64
331.77	1243.12
331.98	1236.97
332.19	1275.88
332.40	1202.16
332.61	1183.73
332.82	1230.83
333.03	1273.84
333.24	1275.88
333.45	1241.07
333.67	1255.40
333.88	1175.53
334.09	1296.36
334.30	1193.97
334.51	1298.41
334.72	1228.78
334.93	1253.36
335.14	1191.92
335.35	1316.84
335.56	1173.49
335.77	1183.73
335.98	1257.45
336.19	1204.21
336.41	1198.06
336.62	1157.10
336.83	1228.78
337.04	1279.98
337.25	1185.77
337.46	1220.59
337.67	1228.78
337.88	1263.60
338.09	1234.93
338.30	1214.45
338.51	1183.73
338.72	1187.82
338.93	1220.59
339.14	1265.64
339.35	1228.78
339.57	1230.83
339.78	1181.68
339.99	1220.59
340.20	1204.21
340.41	1251.31
340.62	1224.69
340.83	1316.84
341.04	1165.29
341.25	1271.79
341.46	1216.49
341.67	1218.54
341.88	1245.16
342.09	1212.40
342.30	1267.69
342.51	1214.45
342.72	1175.53
342.93	1257.45
343.14	1267.69
343.35	1204.21
343.56	1222.64
343.77	1216.49
343.98	1245.16
344.19	1210.35
344.41	1288.17
344.62	1271.79
344.83	1218.54
345.04	1185.77
345.25	1251.31
345.46	1331.18
345.67	1150.96
345.88	1269.74
346.09	1255.40
346.30	1204.21
346.51	1249.26
346.72	1279.98
346.93	1157.10
347.14	1273.84
347.35	1249.26
347.56	1220.59
347.77	1251.31
347.98	1296.36
348.19	1140.72
348.40	1236.97
348.61	1247.21
348.82	1245.16
349.03	1243.12
349.24	1155.05
349.45	1175.53
349.66	1241.07
349.87	1275.88
350.08	1261.55
350.29	1255.40
350.50	1179.63
350.71	1128.43
350.92	1241.07
351.13	1251.31
351.34	1247.21
351.55	1265.64
351.76	1298.41
351.97	1228.78
352.18	1277.93
352.39	1224.69
352.60	1279.98
352.81	1290.22
353.02	1263.60
353.23	1239.02
353.44	1218.54
353.65	1206.25
353.86	1245.16
354.07	1183.73
354.28	1222.64
354.49	1208.30
354.70	1222.64
354.90	1224.69
355.11	1275.88
355.32	1261.55
355.53	1236.97
355.74	1261.55
355.95	1308.65
356.16	1198.06
356.37	1253.36
356.58	1224.69
356.79	1185.77
357.00	1200.11
357.21	1261.55
357.42	1171.44
357.63	1253.36
357.84	1243.12
358.05	1265.64
358.26	1257.45
358.47	1265.64
358.68	1241.07
358.89	1288.17
359.10	1282.03
359.31	1259.50
359.52	1277.93
359.73	1224.69
359.93	1202.16
360.14	1247.21
360.35	1255.40
360.56	1212.40
360.77	1204.21
360.98	1230.83
361.19	1318.89
361.40	1288.17
361.61	1241.07
361.82	1214.45
362.03	1296.36
362.24	1251.31
362.45	1171.44
362.66	1218.54
362.87	1261.55
363.07	1325.04
363.28	1224.69
363.49	1239.02
363.70	1296.36
363.91	1286.12
364.12	1224.69
364.33	1247.21
364.54	1228.78
364.75	1269.74
364.96	1216.49
365.17	1249.26
365.38	1208.30
365.58	1224.69
365.79	1294.32
366.00	1263.60
366.21	1230.83
366.42	1191.92
366.63	1216.49
366.84	1187.82
367.05	1208.30
367.26	1263.60
367.47	1175.53
367.67	1230.83
367.88	1253.36
368.09	1257.45
368.30	1159.15
368.51	1327.08
368.72	1247.21
368.93	1241.07
369.14	1308.65
369.35	1318.89
369.56	1191.92
369.76	1300.46
369.97	1243.12
370.18	1177.58
370.39	1290.22
370.60	1220.59
370.81	1261.55
371.02	1267.69
371.23	1243.12
371.43	1200.11
371.64	1222.64
371.85	1265.64
372.06	1169.39
372.27	1218.54
372.48	1220.59
372.69	1279.98
372.90	1253.36
373.10	1206.25
373.31	1210.35
373.52	1253.36
373.73	1261.55
373.94	1310.70
374.15	1185.77
374.36	1216.49
374.56	1234.93
374.77	1232.88
374.98	1210.35
375.19	1239.02
375.40	1230.83
375.61	1230.83
375.82	1196.01
376.02	1226.73
376.23	1232.88
376.44	1214.45
376.65	1308.65
376.86	1257.45
377.07	1224.69
377.28	1218.54
377.48	1249.26
377.69	1282.03
377.90	1208.30
378.11	1279.98
378.32	1212.40
378.53	1204.21
378.73	1245.16
378.94	1185.77
379.15	1318.89
379.36	1161.20
379.57	1150.96
379.78	1286.12
379.98	1247.21
380.19	1243.12
380.40	1218.54
380.61	1212.40
380.82	1214.45
381.03	1261.55
381.23	1138.67
381.44	1269.74
381.65	1181.68
381.86	1220.59
382.07	1169.39
382.27	1253.36
382.48	1130.48
382.69	1218.54
382.90	1294.32
383.11	1251.31
383.32	1261.55
383.52	1236.97
383.73	1220.59
383.94	1288.17
384.15	1279.98
384.36	1210.35
384.56	1255.40
384.77	1296.36
384.98	1318.89
385.19	1202.16
385.40	1220.59
385.60	1282.03
385.81	1245.16
386.02	1236.97
386.23	1284.08
386.43	1247.21
386.64	1247.21
386.85	1236.97
387.06	1261.55
387.27	1257.45
387.47	1210.35
387.68	1187.82
387.89	1228.78
388.10	1200.11
388.31	1228.78
388.51	1206.25
388.72	1232.88
388.93	1239.02
389.14	1216.49
389.34	1187.82
389.55	1216.49
389.76	1220.59
389.97	1271.79
390.18	1177.58
390.38	1208.30
390.59	1275.88
390.80	1263.60
391.01	1247.21
391.21	1247.21
391.42	1294.32
391.63	1251.31
391.84	1267.69
392.04	1241.07
392.25	1273.84
392.46	1185.77
392.67	1298.41
392.87	1222.64
393.08	1300.46
393.29	1239.02
393.50	1306.60
393.70	1216.49
393.91	1202.16
394.12	1282.03
394.33	1286.12
394.53	1277.93
394.74	1232.88
394.95	1228.78
395.16	1277.93
395.36	1198.06
395.57	1273.84
395.78	1224.69
395.99	1224.69
396.19	1232.88
396.40	1257.45
396.61	1175.53
396.81	1247.21
397.02	1220.59
397.23	1267.69
397.44	1267.69
397.64	1155.05
397.85	1253.36
398.06	1249.26
398.27	1224.69
398.47	1247.21
398.68	1189.87
398.89	1210.35
399.09	1255.40
399.30	1245.16
399.51	1261.55
399.72	1218.54
399.92	1226.73
400.13	1247.21
400.34	1200.11
400.54	1243.12
400.75	1253.36
400.96	1198.06
401.17	1245.16
401.37	1222.64
401.58	1216.49
401.79	1222.64
401.99	1327.08
402.20	1239.02
402.41	1310.70
402.61	1267.69
402.82	1196.01
403.03	1257.45
403.24	1226.73
403.44	1247.21
403.65	1204.21
403.86	1286.12
404.06	1224.69
404.27	1210.35
404.48	1273.84
404.68	1241.07
404.89	1304.56
405.10	1222.64
405.30	1228.78
405.51	1212.40
405.72	1185.77
405.92	1286.12
406.13	1204.21
406.34	1261.55
406.54	1255.40
406.75	1259.50
406.96	1241.07
407.16	1167.34
407.37	1267.69
407.58	1224.69
407.78	1320.94
407.99	1263.60
408.20	1249.26
408.40	1202.16
408.61	1179.63
408.82	1236.97
409.02	1204.21
409.23	1165.29
409.44	1296.36
409.64	1212.40
409.85	1220.59
410.06	1288.17
410.26	1263.60
410.47	1251.31
410.68	1187.82
410.88	1234.93
411.09	1228.78
411.30	1214.45
411.50	1243.12
411.71	1200.11
411.91	1230.83
412.12	1312.75
412.33	1179.63
412.53	1245.16
412.74	1243.12
412.95	1288.17
413.15	1230.83
413.36	1169.39
413.57	1214.45
413.77	1257.45
413.98	1220.59
414.18	1304.56
414.39	1249.26
414.60	1277.93
414.80	1249.26
415.01	1300.46
415.22	1277.93
415.42	1279.98
415.63	1222.64
415.83	1255.40
416.04	1187.82
416.25	1193.97
416.45	1236.97
416.66	1243.12
416.86	1232.88
417.07	1271.79
417.28	1243.12
417.48	1257.45
417.69	1216.49
417.89	1226.73
418.10	1196.01
418.31	1294.32
418.51	1298.41
418.72	1273.84
418.92	1204.21
419.13	1218.54
419.34	1212.40
419.54	1189.87
419.75	1206.25
419.95	1232.88
420.16	1269.74
420.37	1191.92
420.57	1185.77
420.78	1183.73
420.98	1255.40
421.19	1316.84
421.40	1171.44
421.60	1175.53
421.81	1255.40
422.01	1239.02
422.22	1224.69
422.42	1239.02
422.63	1208.30
422.84	1273.84
423.04	1277.93
423.25	1208.30
423.45	1220.59
423.66	1234.93
423.86	1257.45
424.07	1282.03
424.28	1175.53
424.48	1200.11
424.69	1261.55
424.89	1243.12
425.10	1261.55
425.30	1200.11
425.51	1251.31
425.72	1245.16
425.92	1196.01
426.13	1191.92
426.33	1212.40
426.54	1251.31
426.74	1228.78
426.95	1257.45
427.15	1193.97
427.36	1241.07
427.56	1267.69
427.77	1253.36
427.98	1279.98
428.18	1269.74
428.39	1218.54
428.59	1245.16
428.80	1196.01
429.00	1234.93
429.21	1263.60
429.41	1249.26
429.62	1196.01
429.82	1265.64
430.03	1218.54
430.23	1247.21
430.44	1271.79
430.65	1214.45
430.85	1212.40
431.06	1222.64
431.26	1253.36
431.47	1191.92
431.67	1206.25
431.88	1206.25
432.08	1185.77
432.29	1273.84
432.49	1187.82
432.70	1263.60
432.90	1169.39
433.11	1269.74
433.31	1216.49
433.52	1265.64
433.72	1269.74
433.93	1253.36
434.13	1196.01
434.34	1271.79
434.54	1185.77
434.75	1198.06
434.95	1269.74
435.16	1275.88
435.36	1228.78
435.57	1234.93
435.77	1198.06
435.98	1263.60
436.18	1220.59
436.39	1204.21
436.59	1198.06
436.80	1230.83
437.00	1222.64
437.21	1220.59
437.41	1249.26
437.62	1193.97
437.82	1214.45
438.03	1265.64
438.23	1216.49
438.44	1290.22
438.64	1202.16
438.85	1185.77
439.05	1153.01
439.25	1241.07
439.46	1230.83
439.66	1245.16
439.87	1218.54
440.07	1183.73
440.28	1157.10
440.48	1175.53
440.69	1255.40
440.89	1228.78
441.10	1239.02
441.30	1288.17
441.51	1226.73
441.71	1243.12
441.92	1236.97
442.12	1253.36
442.32	1265.64
442.53	1196.01
442.73	1243.12
442.94	1253.36
443.14	1279.98
443.35	1171.44
443.55	1271.79
443.76	1257.45
443.96	1243.12
444.16	1226.73
444.37	1241.07
444.57	1249.26
444.78	1265.64
444.98	1243.12
445.19	1243.12
445.39	1193.97
445.60	1318.89
445.80	1312.75
446.00	1185.77
446.21	1286.12
446.41	1224.69
446.62	1294.32
446.82	1202.16
447.03	1226.73
447.23	1216.49
447.43	1198.06
447.64	1253.36
447.84	1228.78
448.05	1292.27
448.25	1277.93
448.45	1183.73
448.66	1220.59
448.86	1300.46
449.07	1275.88
449.27	1230.83
449.48	1185.77
449.68	1302.51
449.88	1222.64
450.09	1267.69
450.29	1208.30
450.50	1263.60
450.70	1273.84
450.90	1132.53
451.11	1230.83
451.31	1241.07
451.52	1255.40
451.72	1208.30
451.92	1214.45
452.13	1249.26
452.33	1241.07
452.54	1292.27
452.74	1130.48
452.94	1279.98
453.15	1224.69
453.35	1216.49
453.55	1261.55
453.76	1247.21
453.96	1302.51
454.17	1165.29
454.37	1198.06
454.57	1277.93
454.78	1245.16
454.98	1191.92
455.19	1198.06
455.39	1198.06
455.59	1279.98
455.80	1251.31
456.00	1286.12
456.20	1236.97
456.41	1273.84
456.61	1241.07
456.81	1204.21
457.02	1206.25
457.22	1261.55
457.43	1177.58
457.63	1265.64
457.83	1249.26
458.04	1232.88
458.24	1251.31
458.44	1296.36
458.65	1251.31
458.85	1230.83
459.05	1259.50
459.26	1292.27
459.46	1241.07
459.66	1300.46
459.87	1241.07
460.07	1200.11
460.27	1181.68
460.48	1290.22
460.68	1279.98
460.88	1208.30
461.09	1191.92
461.29	1198.06
461.49	1290.22
461.70	1185.77
461.90	1144.81
462.10	1200.11
462.31	1173.49
462.51	1251.31
462.71	1187.82
462.92	1271.79
463.12	1255.40
463.32	1279.98
463.53	1216.49
463.73	1269.74
463.93	1232.88
464.14	1181.68
464.34	1241.07
464.54	1273.84
464.75	1220.59
464.95	1196.01
465.15	1275.88
465.36	1136.62
465.56	1095.66
465.76	1286.12
465.96	1204.21
466.17	1261.55
466.37	1226.73
466.57	1312.75
466.78	1202.16
466.98	1189.87
467.18	1204.21
467.39	1218.54
467.59	1214.45
467.79	1228.78
467.99	1185.77
468.20	1228.78
468.40	1257.45
468.60	1189.87
468.81	1288.17
469.01	1333.23
469.21	1196.01
469.41	1282.03
469.62	1282.03
469.82	1202.16
470.02	1253.36
470.23	1355.76
470.43	1269.74
470.63	1253.36
470.83	1189.87
471.04	1175.53
471.24	1247.21
471.44	1165.29
471.65	1208.30
471.85	1204.21
472.05	1177.58
472.25	1204.21
472.46	1216.49
472.66	1269.74
472.86	1222.64
473.06	1259.50
473.27	1284.08
473.47	1183.73
473.67	1261.55
473.87	1279.98
474.08	1239.02
474.28	1288.17
474.48	1236.97
474.68	1300.46
474.89	1230.83
475.09	1150.96
475.29	1187.82
475.49	1226.73
475.70	1239.02
475.90	1286.12
476.10	1169.39
476.30	1177.58
476.51	1318.89
476.71	1269.74
476.91	1230.83
477.11	1226.73
477.32	1234.93
477.52	1290.22
477.72	1218.54
477.92	1224.69
478.12	1226.73
478.33	1200.11
478.53	1263.60
478.73	1222.64
478.93	1294.32
479.14	1265.64
479.34	1275.88
479.54	1249.26
479.74	1208.30
479.94	1269.74
480.15	1177.58
480.35	1196.01
480.55	1232.88
480.75	1304.56
480.96	1224.69
481.16	1333.23
481.36	1126.38
481.56	1228.78
481.76	1261.55
481.97	1269.74
482.17	1230.83
482.37	1173.49
482.57	1239.02
482.77	1204.21
482.98	1232.88
483.18	1271.79
483.38	1210.35
483.58	1259.50
483.78	1200.11
483.98	1196.01
484.19	1279.98
484.39	1155.05
484.59	1243.12
484.79	1224.69
484.99	1202.16
485.20	1173.49
485.40	1320.94
485.60	1329.13
485.80	1198.06
486.00	1249.26
486.20	1220.59
486.41	1247.21
486.61	1191.92
486.81	1224.69
487.01	1198.06
487.21	1275.88
487.42	1220.59
487.62	1243.12
487.82	1243.12
488.02	1202.16
488.22	1212.40
488.42	1245.16
488.62	1206.25
488.83	1284.08
489.03	1275.88
489.23	1216.49
489.43	1130.48
489.63	1218.54
489.83	1146.86
490.04	1275.88
490.24	1212.40
490.44	1259.50
490.64	1253.36
490.84	1308.65
491.04	1220.59
491.24	1228.78
491.45	1216.49
491.65	1210.35
491.85	1265.64
492.05	1212.40
492.25	1220.59
492.45	1284.08
492.65	1275.88
492.86	1251.31
493.06	1304.56
493.26	1249.26
493.46	1243.12
493.66	1308.65
493.86	1267.69
494.06	1196.01
494.26	1245.16
494.47	1253.36
494.67	1187.82
494.87	1171.44
495.07	1187.82
495.27	1202.16
495.47	1247.21
495.67	1292.27
495.87	1208.30
496.07	1224.69
496.28	1189.87
496.48	1239.02
496.68	1243.12
496.88	1216.49
497.08	1249.26
497.28	1232.88
497.48	1253.36
497.68	1232.88
497.88	1239.02
498.08	1212.40
498.29	1214.45
498.49	1236.97
498.69	1224.69
498.89	1290.22
499.09	1286.12
499.29	1255.40
499.49	1241.07
499.69	1296.36
499.89	1259.50
500.09	1277.93
500.29	1230.83
500.50	1216.49
500.70	1243.12
500.90	1208.30
501.10	1263.60
501.30	1247.21
501.50	1273.84
501.70	1335.28
501.90	1210.35
502.10	1234.93
502.30	1284.08
502.50	1228.78
502.70	1200.11
502.90	1247.21
503.10	1228.78
503.31	1185.77
503.51	1234.93
503.71	1200.11
503.91	1279.98
504.11	1261.55
504.31	1214.45
504.51	1337.32
504.71	1300.46
504.91	1198.06
505.11	1247.21
505.31	1279.98
505.51	1214.45
505.71	1239.02
505.91	1259.50
506.11	1257.45
506.31	1224.69
506.51	1204.21
506.71	1247.21
506.91	1236.97
507.11	1277.93
507.31	1286.12
507.51	1302.51
507.72	1261.55
507.92	1271.79
508.12	1261.55
508.32	1296.36
508.52	1277.93
508.72	1218.54
508.92	1288.17
509.12	1173.49
509.32	1228.78
509.52	1279.98
509.72	1288.17
509.92	1224.69
510.12	1187.82
510.32	1198.06
510.52	1294.32
510.72	1218.54
510.92	1308.65
511.12	1220.59
511.32	1312.75
511.52	1284.08
511.72	1259.50
511.92	1271.79
512.12	1269.74
512.32	1259.50
512.52	1226.73
512.72	1290.22
512.92	1269.74
513.12	1236.97
513.32	1251.31
513.52	1251.31
513.72	1228.78
513.92	1275.88
514.12	1245.16
514.32	1253.36
514.52	1355.76
514.72	1214.45
514.92	1314.80
515.12	1290.22
515.32	1263.60
515.52	1169.39
515.72	1196.01
515.92	1161.20
516.12	1220.59
516.32	1294.32
516.52	1212.40
516.72	1171.44
516.92	1269.74
517.12	1236.97
517.32	1239.02
517.51	1200.11
517.71	1257.45
517.91	1206.25
518.11	1245.16
518.31	1171.44
518.51	1275.88
518.71	1251.31
518.91	1259.50
519.11	1218.54
519.31	1277.93
519.51	1216.49
519.71	1267.69
519.91	1232.88
520.11	1224.69
520.31	1286.12
520.51	1200.11
520.71	1275.88
520.91	1261.55
521.11	1277.93
521.31	1224.69
521.51	1189.87
521.70	1236.97
521.90	1273.84
522.10	1183.73
522.30	1212.40
522.50	1257.45
522.70	1241.07
522.90	1150.96
523.10	1196.01
523.30	1286.12
523.50	1284.08
523.70	1173.49
523.90	1320.94
524.10	1288.17
524.30	1167.34
524.49	1236.97
524.69	1228.78
524.89	1218.54
525.09	1249.26
525.29	1265.64
525.49	1193.97
525.69	1251.31
525.89	1198.06
526.09	1257.45
526.29	1138.67
526.49	1265.64
526.68	1243.12
526.88	1267.69
527.08	1247.21
527.28	1253.36
527.48	1277.93
527.68	1282.03
527.88	1191.92
528.08	1239.02
528.28	1253.36
528.48	1226.73
528.67	1216.49
528.87	1253.36
529.07	1187.82
529.27	1263.60
529.47	1243.12
529.67	1265.64
529.87	1206.25
530.07	1306.60
530.26	1286.12
530.46	1210.35
530.66	1228.78
530.86	1286.12
531.06	1204.21
531.26	1232.88
531.46	1169.39
531.66	1394.67
531.85	1318.89
532.05	1236.97
532.25	1228.78
532.45	1232.88
532.65	1249.26
532.85	1314.80
533.05	1269.74
533.25	1241.07
533.44	1269.74
533.64	1210.35
533.84	1226.73
534.04	1228.78
534.24	1327.08
534.44	1294.32
534.63	1277.93
534.83	1269.74
535.03	1193.97
535.23	1210.35
535.43	1236.97
535.63	1243.12
535.83	1257.45
536.02	1245.16
536.22	1279.98
536.42	1234.93
536.62	1294.32
536.82	1284.08
537.02	1251.31
537.21	1286.12
537.41	1267.69
537.61	1249.26
537.81	1261.55
538.01	1239.02
538.21	1349.61
538.40	1282.03
538.60	1255.40
538.80	1310.70
539.00	1312.75
539.20	1253.36
539.39	1239.02
539.59	1347.56
539.79	1325.04
539.99	1282.03
540.19	1351.66
540.39	1361.90
540.58	1400.81
540.78	1304.56
540.98	1366.00
541.18	1355.76
541.38	1320.94
541.57	1417.19
541.77	1329.13
541.97	1370.09
542.17	1380.33
542.37	1406.95
542.56	1449.96
542.76	1380.33
542.96	1406.95
543.16	1443.82
543.35	1396.71
543.55	1392.62
543.75	1384.43
543.95	1513.45
544.15	1429.48
544.34	1402.86
544.54	1372.14
544.74	1437.67
544.94	1495.02
545.14	1429.48
545.33	1415.15
545.53	1390.57
545.73	1316.84
545.93	1384.43
546.12	1380.33
546.32	1337.32
546.52	1361.90
546.72	1251.31
546.91	1345.52
547.11	1322.99
547.31	1366.00
547.51	1343.47
547.70	1320.94
547.90	1279.98
548.10	1339.37
548.30	1306.60
548.50	1294.32
548.69	1294.32
548.89	1267.69
549.09	1312.75
549.29	1327.08
549.48	1331.18
549.68	1378.28
549.88	1325.04
550.07	1366.00
550.27	1191.92
550.47	1279.98
550.67	1355.76
550.86	1249.26
551.06	1257.45
551.26	1253.36
551.46	1322.99
551.65	1261.55
551.85	1339.37
552.05	1236.97
552.25	1308.65
552.44	1247.21
552.64	1271.79
552.84	1302.51
553.03	1333.23
553.23	1236.97
553.43	1267.69
553.63	1298.41
553.82	1294.32
554.02	1337.32
554.22	1253.36
554.41	1255.40
554.61	1216.49
554.81	1318.89
555.01	1322.99
555.20	1218.54
555.40	1263.60
555.60	1257.45
555.79	1255.40
555.99	1300.46
556.19	1228.78
556.38	1216.49
556.58	1259.50
556.78	1243.12
556.98	1263.60
557.17	1249.26
557.37	1167.34
557.57	1198.06
557.76	1224.69
557.96	1331.18
558.16	1236.97
558.35	1312.75
558.55	1189.87
558.75	1343.47
558.94	1261.55
559.14	1255.40
559.34	1275.88
559.53	1288.17
559.73	1333.23
559.93	1302.51
560.12	1298.41
560.32	1198.06
560.52	1322.99
560.71	1335.28
560.91	1310.70
561.11	1282.03
561.30	1263.60
561.50	1271.79
561.70	1277.93
561.89	1288.17
562.09	1263.60
562.29	1249.26
562.48	1208.30
562.68	1228.78
562.88	1212.40
563.07	1179.63
563.27	1261.55
563.47	1277.93
563.66	1347.56
563.86	1214.45
564.06	1298.41
564.25	1175.53
564.45	1331.18
564.64	1196.01
564.84	1265.64
565.04	1230.83
565.23	1318.89
565.43	1236.97
565.63	1239.02
565.82	1226.73
566.02	1259.50
566.22	1155.05
566.41	1290.22
566.61	1288.17
566.80	1210.35
567.00	1327.08
567.20	1265.64
567.39	1267.69
567.59	1310.70
567.78	1224.69
567.98	1196.01
568.18	1277.93
568.37	1206.25
568.57	1177.58
568.77	1279.98
568.96	1282.03
569.16	1341.42
569.35	1277.93
569.55	1191.92
569.75	1236.97
569.94	1308.65
570.14	1294.32
570.33	1275.88
570.53	1271.79
570.73	1253.36
570.92	1220.59
571.12	1282.03
571.31	1306.60
571.51	1298.41
571.71	1279.98
571.90	1265.64
572.10	1277.93
572.29	1265.64
572.49	1202.16
572.68	1253.36
572.88	1251.31
573.08	1230.83
573.27	1277.93
573.47	1212.40
573.66	1224.69
573.86	1366.00
574.05	1243.12
574.25	1245.16
574.45	1284.08
574.64	1294.32
574.84	1339.37
575.03	1257.45
575.23	1306.60
575.42	1368.04
575.62	1261.55
575.82	1247.21
576.01	1279.98
576.21	1318.89
576.40	1294.32
576.60	1339.37
576.79	1273.84
576.99	1275.88
577.18	1224.69
577.38	1193.97
577.57	1286.12
577.77	1193.97
577.97	1298.41
578.16	1327.08
578.36	1351.66
578.55	1333.23
578.75	1253.36
578.94	1282.03
579.14	1259.50
579.33	1349.61
579.53	1269.74
579.72	1351.66
579.92	1230.83
580.11	1353.71
580.31	1366.00
580.50	1279.98
580.70	1378.28
580.90	1286.12
581.09	1292.27
581.29	1265.64
581.48	1306.60
581.68	1232.88
581.87	1251.31
582.07	1327.08
582.26	1273.84
582.46	1245.16
582.65	1312.75
582.85	1275.88
583.04	1339.37
583.24	1308.65
583.43	1312.75
583.63	1316.84
583.82	1327.08
584.02	1351.66
584.21	1290.22
584.41	1366.00
584.60	1275.88
584.80	1355.76
584.99	1304.56
585.19	1304.56
585.38	1320.94
585.58	1331.18
585.77	1341.42
585.97	1327.08
586.16	1241.07
586.35	1327.08
586.55	1304.56
586.74	1304.56
586.94	1275.88
587.13	1363.95
587.33	1271.79
587.52	1325.04
587.72	1298.41
587.91	1267.69
588.11	1247.21
588.30	1306.60
588.50	1226.73
588.69	1279.98
588.89	1265.64
589.08	1316.84
589.28	1347.56
589.47	1304.56
589.66	1320.94
589.86	1284.08
590.05	1343.47
590.25	1366.00
590.44	1271.79
590.64	1312.75
590.83	1239.02
591.03	1300.46
591.22	1286.12
591.41	1259.50
591.61	1288.17
591.80	1349.61
592.00	1275.88
592.19	1271.79
592.39	1339.37
592.58	1357.80
592.78	1322.99
592.97	1327.08
593.16	1261.55
593.36	1298.41
593.55	1288.17
593.75	1243.12
593.94	1298.41
594.14	1216.49
594.33	1275.88
594.52	1241.07
594.72	1257.45
594.91	1288.17
595.11	1261.55
595.30	1236.97
595.49	1228.78
595.69	1277.93
595.88	1253.36
596.08	1292.27
596.27	1273.84
596.47	1366.00
596.66	1294.32
596.85	1277.93
597.05	1261.55
597.24	1302.51
597.44	1222.64
597.63	1349.61
597.82	1320.94
598.02	1286.12
598.21	1222.64
598.40	1308.65
598.60	1339.37
598.79	1261.55
598.99	1306.60
599.18	1230.83
599.37	1273.84
599.57	1279.98
599.76	1245.16
599.96	1271.79
600.15	1269.74
600.34	1298.41
600.54	1277.93
600.73	1314.80
600.92	1253.36
601.12	1355.76
601.31	1220.59
601.51	1230.83
601.70	1294.32
601.89	1150.96
602.09	1249.26
602.28	1269.74
602.47	1216.49
602.67	1255.40
602.86	1255.40
603.05	1247.21
603.25	1183.73
603.44	1296.36
603.63	1284.08
603.83	1259.50
604.02	1277.93
604.22	1308.65
604.41	1296.36
604.60	1241.07
604.80	1212.40
604.99	1284.08
605.18	1271.79
605.38	1300.46
605.57	1288.17
605.76	1273.84
605.96	1290.22
606.15	1230.83
606.34	1273.84
606.54	1302.51
606.73	1273.84
606.92	1286.12
607.12	1288.17
607.31	1347.56
607.50	1333.23
607.70	1220.59
607.89	1304.56
608.08	1277.93
608.28	1316.84
608.47	1298.41
608.66	1302.51
608.85	1300.46
609.05	1296.36
609.24	1320.94
609.43	1320.94
609.63	1415.15
609.82	1458.15
610.01	1441.77
610.21	1480.68
610.40	1458.15
610.59	1482.73
610.79	1515.50
610.98	1386.47
611.17	1411.05
611.36	1441.77
611.56	1368.04
611.75	1398.76
611.94	1406.95
612.14	1306.60
612.33	1351.66
612.52	1388.52
612.71	1347.56
612.91	1409.00
613.10	1337.32
613.29	1361.90
613.49	1335.28
613.68	1382.38
613.87	1284.08
614.06	1368.04
614.26	1290.22
614.45	1306.60
614.64	1363.95
614.83	1316.84
615.03	1255.40
615.22	1249.26
615.41	1282.03
615.60	1331.18
615.80	1306.60
615.99	1282.03
616.18	1325.04
616.38	1292.27
616.57	1335.28
616.76	1304.56
616.95	1318.89
617.15	1298.41
617.34	1290.22
617.53	1271.79
617.72	1249.26
617.92	1288.17
618.11	1282.03
618.30	1290.22
618.49	1318.89
618.68	1286.12
618.88	1279.98
619.07	1261.55
619.26	1298.41
619.45	1275.88
619.65	1275.88
619.84	1261.55
620.03	1306.60
620.22	1312.75
620.42	1304.56
620.61	1302.51
620.80	1193.97
620.99	1288.17
621.18	1269.74
621.38	1294.32
621.57	1314.80
621.76	1228.78
621.95	1218.54
622.15	1232.88
622.34	1226.73
622.53	1325.04
622.72	1318.89
622.91	1308.65
623.11	1257.45
623.30	1253.36
623.49	1247.21
623.68	1214.45
623.87	1259.50
624.07	1298.41
624.26	1296.36
624.45	1339.37
624.64	1271.79
624.83	1251.31
625.03	1290.22
625.22	1310.70
625.41	1257.45
625.60	1282.03
625.79	1239.02
625.98	1298.41
626.18	1269.74
626.37	1234.93
626.56	1259.50
626.75	1208.30
626.94	1282.03
627.14	1253.36
627.33	1200.11
627.52	1200.11
627.71	1351.66
627.90	1308.65
628.09	1327.08
628.29	1210.35
628.48	1296.36
628.67	1261.55
628.86	1239.02
629.05	1259.50
629.24	1259.50
629.43	1316.84
629.63	1277.93
629.82	1175.53
630.01	1222.64
630.20	1251.31
630.39	1302.51
630.58	1267.69
630.78	1310.70
630.97	1222.64
631.16	1236.97
631.35	1249.26
631.54	1204.21
631.73	1306.60
631.92	1220.59
632.11	1245.16
632.31	1222.64
632.50	1171.44
632.69	1241.07
632.88	1224.69
633.07	1267.69
633.26	1302.51
633.45	1206.25
633.65	1220.59
633.84	1251.31
634.03	1269.74
634.22	1232.88
634.41	1208.30
634.60	1200.11
634.79	1279.98
634.98	1279.98
635.17	1236.97
635.37	1185.77
635.56	1236.97
635.75	1189.87
635.94	1279.98
636.13	1288.17
636.32	1214.45
636.51	1249.26
636.70	1212.40
636.89	1294.32
637.08	1327.08
637.28	1208.30
637.47	1179.63
637.66	1234.93
637.85	1253.36
638.04	1302.51
638.23	1202.16
638.42	1312.75
638.61	1232.88
638.80	1247.21
638.99	1193.97
639.18	1236.97
639.38	1284.08
639.57	1204.21
639.76	1216.49
639.95	1284.08
640.14	1243.12
640.33	1183.73
640.52	1210.35
640.71	1273.84
640.90	1234.93
641.09	1288.17
641.28	1267.69
641.47	1359.85
641.66	1228.78
641.85	1267.69
642.04	1265.64
642.24	1245.16
642.43	1304.56
642.62	1492.97
642.81	1290.22
643.00	1282.03
643.19	1206.25
643.38	1265.64
643.57	1226.73
643.76	1290.22
643.95	1339.37
644.14	1220.59
644.33	1271.79
644.52	1251.31
644.71	1265.64
644.90	1239.02
645.09	1263.60
645.28	1296.36
645.47	1196.01
645.66	1183.73
645.85	1288.17
646.04	1273.84
646.23	1167.34
646.42	1208.30
646.61	1169.39
646.80	1204.21
646.99	1187.82
647.18	1216.49
647.37	1306.60
647.56	1232.88
647.75	1310.70
647.95	1296.36
648.14	1204.21
648.33	1290.22
648.52	1251.31
648.71	1296.36
648.90	1245.16
649.09	1198.06
649.28	1220.59
649.47	1210.35
649.66	1271.79
649.85	1214.45
650.04	1265.64
650.23	1271.79
650.42	1306.60
650.61	1228.78
650.79	1216.49
650.98	1191.92
651.17	1314.80
651.36	1189.87
651.55	1279.98
651.74	1241.07
651.93	1259.50
652.12	1230.83
652.31	1253.36
652.50	1181.68
652.69	1224.69
652.88	1236.97
653.07	1284.08
653.26	1193.97
653.45	1325.04
653.64	1185.77
653.83	1224.69
654.02	1257.45
654.21	1300.46
654.40	1247.21
654.59	1288.17
654.78	1275.88
654.97	1259.50
655.16	1236.97
655.35	1234.93
655.54	1265.64
655.73	1302.51
655.92	1251.31
656.11	1236.97
656.30	1222.64
656.48	1216.49
656.67	1261.55
656.86	1230.83
657.05	1288.17
657.24	1189.87
657.43	1165.29
657.62	1290.22
657.81	1163.25
658.00	1232.88
658.19	1259.50
658.38	1239.02
658.57	1298.41
658.76	1261.55
658.95	1247.21
659.13	1310.70
659.32	1222.64
659.51	1196.01
659.70	1255.40
659.89	1247.21
660.08	1202.16
660.27	1218.54
660.46	1226.73
660.65	1251.31
660.84	1267.69
661.03	1187.82
661.22	1273.84
661.40	1234.93
661.59	1298.41
661.78	1296.36
661.97	1171.44
662.16	1298.41
662.35	1206.25
662.54	1179.63
662.73	1247.21
662.92	1204.21
663.11	1251.31
663.29	1224.69
663.48	1208.30
663.67	1191.92
663.86	1286.12
664.05	1191.92
664.24	1288.17
664.43	1302.51
664.62	1282.03
664.80	1247.21
664.99	1239.02
665.18	1247.21
665.37	1294.32
665.56	1267.69
665.75	1249.26
665.94	1275.88
666.13	1234.93
666.31	1204.21
666.50	1241.07
666.69	1247.21
666.88	1259.50
667.07	1202.16
667.26	1259.50
667.45	1216.49
667.63	1224.69
667.82	1243.12
668.01	1253.36
668.20	1239.02
668.39	1284.08
668.58	1251.31
668.76	1257.45
668.95	1181.68
669.14	1267.69
669.33	1271.79
669.52	1169.39
669.71	1179.63
669.90	1312.75
670.08	1273.84
670.27	1245.16
670.46	1208.30
670.65	1273.84
670.84	1200.11
671.03	1333.23
671.21	1208.30
671.40	1275.88
671.59	1181.68
671.78	1224.69
671.97	1144.81
672.15	1294.32
672.34	1208.30
672.53	1146.86
672.72	1204.21
672.91	1290.22
673.09	1273.84
673.28	1282.03
673.47	1286.12
673.66	1284.08
673.85	1308.65
674.04	1228.78
674.22	1220.59
674.41	1234.93
674.60	1277.93
674.79	1279.98
674.98	1200.11
675.16	1267.69
675.35	1277.93
675.54	1312.75
675.73	1255.40
675.91	1302.51
676.10	1208.30
676.29	1245.16
676.48	1234.93
676.67	1251.31
676.85	1218.54
677.04	1243.12
677.23	1245.16
677.42	1232.88
677.60	1320.94
677.79	1228.78
677.98	1232.88
678.17	1212.40
678.36	1230.83
678.54	1343.47
678.73	1275.88
678.92	1273.84
679.11	1265.64
679.29	1200.11
679.48	1282.03
679.67	1224.69
679.86	1255.40
680.04	1196.01
680.23	1269.74
680.42	1273.84
680.61	1245.16
680.79	1200.11
680.98	1220.59
681.17	1374.19
681.36	1263.60
681.54	1284.08
681.73	1308.65
681.92	1312.75
682.11	1181.68
682.29	1247.21
682.48	1193.97
682.67	1257.45
682.85	1271.79
683.04	1279.98
683.23	1241.07
683.42	1284.08
683.60	1261.55
683.79	1284.08
683.98	1300.46
684.17	1234.93
684.35	1214.45
684.54	1261.55
684.73	1175.53
684.91	1273.84
685.10	1300.46
685.29	1269.74
685.48	1298.41
685.66	1296.36
685.85	1282.03
686.04	1224.69
686.22	1288.17
686.41	1212.40
686.60	1253.36
686.78	1200.11
686.97	1294.32
687.16	1265.64
687.35	1255.40
687.53	1220.59
687.72	1298.41
687.91	1267.69
688.09	1249.26
688.28	1335.28
688.47	1263.60
688.65	1279.98
688.84	1224.69
689.03	1218.54
689.21	1306.60
689.40	1183.73
689.59	1253.36
689.77	1226.73
689.96	1257.45
690.15	1230.83
690.33	1279.98
690.52	1306.60
690.71	1273.84
690.89	1212.40
691.08	1257.45
691.27	1234.93
691.45	1239.02
691.64	1265.64
691.83	1322.99
692.01	1304.56
692.20	1249.26
692.39	1312.75
692.57	1296.36
692.76	1300.46
692.95	1239.02
693.13	1339.37
693.32	1218.54
693.50	1232.88
693.69	1331.18
693.88	1343.47
694.06	1275.88
694.25	1204.21
694.44	1269.74
694.62	1329.13
694.81	1265.64
695.00	1259.50
695.18	1298.41
695.37	1304.56
695.55	1277.93
695.74	1290.22
695.93	1329.13
696.11	1325.04
696.30	1259.50
696.49	1249.26
696.67	1267.69
696.86	1382.38
697.04	1269.74
697.23	1265.64
697.42	1320.94
697.60	1257.45
697.79	1318.89
697.97	1251.31
698.16	1327.08
698.35	1275.88
698.53	1222.64
698.72	1312.75
698.90	1310.70
699.09	1273.84
699.28	1329.13
699.46	1222.64
699.65	1239.02
699.83	1345.52
700.02	1316.84
700.21	1271.79
700.39	1294.32
700.58	1259.50
700.76	1253.36
700.95	1351.66
701.13	1279.98
701.32	1417.19
701.51	1337.32
701.69	1341.42
701.88	1292.27
702.06	1310.70
702.25	1292.27
702.43	1294.32
702.62	1232.88
702.81	1288.17
702.99	1259.50
703.18	1189.87
703.36	1232.88
703.55	1284.08
703.73	1275.88
703.92	1341.42
704.10	1298.41
704.29	1263.60
704.48	1368.04
704.66	1288.17
704.85	1341.42
705.03	1384.43
705.22	1259.50
705.40	1298.41
705.59	1396.71
705.77	1355.76
705.96	1286.12
706.14	1341.42
706.33	1402.86
706.51	1294.32
706.70	1339.37
706.89	1304.56
707.07	1318.89
707.26	1337.32
707.44	1374.19
707.63	1339.37
707.81	1351.66
708.00	1384.43
708.18	1306.60
708.37	1331.18
708.55	1351.66
708.74	1325.04
708.92	1339.37
709.11	1286.12
709.29	1310.70
709.48	1349.61
709.66	1353.71
709.85	1329.13
710.03	1308.65
710.22	1355.76
710.40	1368.04
710.59	1312.75
710.77	1359.85
710.96	1279.98
711.14	1406.95
711.33	1363.95
711.51	1304.56
711.70	1425.39
711.88	1351.66
712.07	1335.28
712.25	1339.37
712.44	1417.19
712.62	1296.36
712.81	1370.09
712.99	1327.08
713.18	1327.08
713.36	1284.08
713.54	1380.33
713.73	1312.75
713.91	1230.83
714.10	1329.13
714.28	1392.62
714.47	1363.95
714.65	1288.17
714.84	1304.56
715.02	1302.51
715.21	1302.51
715.39	1284.08
715.58	1337.32
715.76	1345.52
715.94	1331.18
716.13	1267.69
716.31	1257.45
716.50	1296.36
716.68	1314.80
716.87	1339.37
717.05	1269.74
717.24	1372.14
717.42	1277.93
717.60	1349.61
717.79	1279.98
717.97	1222.64
718.16	1292.27
718.34	1282.03
718.53	1282.03
718.71	1310.70
718.89	1241.07
719.08	1318.89
719.26	1357.80
719.45	1331.18
719.63	1251.31
719.82	1322.99
720.00	1261.55
720.18	1298.41
720.37	1304.56
720.55	1286.12
720.74	1335.28
720.92	1245.16
721.10	1308.65
721.29	1363.95
721.47	1339.37
721.66	1302.51
721.84	1355.76
722.02	1279.98
722.21	1388.52
722.39	1286.12
722.58	1220.59
722.76	1300.46
722.94	1279.98
723.13	1329.13
723.31	1273.84
723.50	1329.13
723.68	1339.37
723.86	1341.42
724.05	1351.66
724.23	1314.80
724.41	1249.26
724.60	1312.75
724.78	1282.03
724.97	1300.46
725.15	1327.08
725.33	1427.43
725.52	1290.22
725.70	1310.70
725.88	1288.17
726.07	1384.43
726.25	1343.47
726.44	1341.42
726.62	1327.08
726.80	1320.94
726.99	1339.37
727.17	1384.43
727.35	1376.24
727.54	1357.80
727.72	1331.18
727.90	1363.95
728.09	1325.04
728.27	1372.14
728.45	1325.04
728.64	1296.36
728.82	1271.79
729.00	1300.46
729.19	1337.32
729.37	1380.33
729.55	1353.71
729.74	1245.16
729.92	1245.16
730.10	1378.28
730.29	1329.13
730.47	1327.08
730.65	1320.94
730.84	1382.38
731.02	1337.32
731.20	1218.54
731.39	1294.32
731.57	1386.47
731.75	1341.42
731.94	1294.32
732.12	1370.09
732.30	1339.37
732.49	1386.47
732.67	1318.89
732.85	1341.42
733.03	1376.24
733.22	1370.09
733.40	1327.08
733.58	1310.70
733.77	1347.56
733.95	1296.36
734.13	1277.93
734.32	1304.56
734.50	1312.75
734.68	1320.94
734.86	1286.12
735.05	1302.51
735.23	1312.75
735.41	1279.98
735.60	1333.23
735.78	1296.36
735.96	1306.60
736.14	1335.28
736.33	1392.62
736.51	1396.71
736.69	1363.95
736.87	1372.14
737.06	1394.67
737.24	1228.78
737.42	1298.41
737.61	1341.42
737.79	1314.80
737.97	1298.41
738.15	1382.38
738.34	1259.50
738.52	1351.66
738.70	1298.41
738.88	1376.24
739.07	1341.42
739.25	1368.04
739.43	1333.23
739.61	1388.52
739.80	1314.80
739.98	1277.93
740.16	1267.69
740.34	1296.36
740.52	1310.70
740.71	1343.47
740.89	1333.23
741.07	1374.19
741.25	1374.19
741.44	1318.89
741.62	1386.47
741.80	1368.04
741.98	1370.09
742.17	1310.70
742.35	1357.80
742.53	1327.08
742.71	1312.75
742.89	1325.04
743.08	1337.32
743.26	1316.84
743.44	1331.18
743.62	1339.37
743.80	1312.75
743.99	1277.93
744.17	1343.47
744.35	1316.84
744.53	1306.60
744.71	1245.16
744.90	1361.90
745.08	1267.69
745.26	1316.84
745.44	1337.32
745.62	1345.52
745.81	1333.23
745.99	1351.66
746.17	1314.80
746.35	1322.99
746.53	1355.76
746.72	1329.13
746.90	1339.37
747.08	1277.93
747.26	1290.22
747.44	1296.36
747.62	1339.37
747.81	1345.52
747.99	1349.61
748.17	1312.75
748.35	1318.89
748.53	1306.60
748.71	1279.98
748.90	1282.03
749.08	1318.89
749.26	1279.98
749.44	1300.46
749.62	1312.75
749.80	1302.51
749.99	1351.66
750.17	1411.05
750.35	1439.72
750.53	1339.37
750.71	1306.60
750.89	1284.08
751.07	1329.13
751.26	1316.84
751.44	1394.67
751.62	1298.41
751.80	1298.41
751.98	1286.12
752.16	1411.05
752.34	1308.65
752.53	1296.36
752.71	1296.36
752.89	1286.12
753.07	1337.32
753.25	1259.50
753.43	1343.47
753.61	1279.98
753.79	1337.32
753.98	1298.41
754.16	1316.84
754.34	1306.60
754.52	1257.45
754.70	1370.09
754.88	1339.37
755.06	1339.37
755.24	1341.42
755.42	1353.71
755.60	1370.09
755.79	1357.80
755.97	1292.27
756.15	1333.23
756.33	1282.03
756.51	1380.33
756.69	1308.65
756.87	1368.04
757.05	1341.42
757.23	1263.60
757.41	1439.72
757.60	1333.23
757.78	1327.08
757.96	1335.28
758.14	1345.52
758.32	1366.00
758.50	1261.55
758.68	1304.56
758.86	1337.32
759.04	1292.27
759.22	1359.85
759.40	1388.52
759.58	1349.61
759.76	1355.76
759.94	1396.71
760.13	1304.56
760.31	1339.37
760.49	1333.23
760.67	1370.09
760.85	1347.56
761.03	1298.41
761.21	1411.05
761.39	1384.43
761.57	1310.70
761.75	1343.47
761.93	1427.43
762.11	1351.66
762.29	1306.60
762.47	1368.04
762.65	1294.32
762.83	1359.85
763.01	1343.47
763.19	1314.80
763.37	1374.19
763.55	1325.04
763.73	1345.52
763.91	1384.43
764.09	1286.12
764.27	1361.90
764.45	1413.10
764.64	1363.95
764.82	1331.18
765.00	1468.39
765.18	1447.91
765.36	1380.33
765.54	1339.37
765.72	1271.79
765.90	1361.90
766.08	1302.51
766.26	1361.90
766.44	1370.09
766.62	1372.14
766.80	1325.04
766.98	1421.29
767.16	1345.52
767.34	1316.84
767.52	1421.29
767.70	1296.36
767.88	1363.95
768.06	1343.47
768.24	1396.71
768.42	1325.04
768.60	1417.19
768.78	1343.47
768.96	1363.95
769.13	1318.89
769.31	1351.66
769.49	1331.18
769.67	1269.74
769.85	1409.00
770.03	1329.13
770.21	1279.98
770.39	1363.95
770.57	1378.28
770.75	1372.14
770.93	1292.27
771.11	1282.03
771.29	1339.37
771.47	1347.56
771.65	1409.00
771.83	1308.65
772.01	1359.85
772.19	1345.52
772.37	1325.04
772.55	1335.28
772.73	1269.74
772.91	1335.28
773.09	1370.09
773.27	1327.08
773.44	1341.42
773.62	1394.67
773.80	1368.04
773.98	1366.00
774.16	1343.47
774.34	1312.75
774.52	1357.80
774.70	1398.76
774.88	1439.72
775.06	1357.80
775.24	1398.76
775.42	1337.32
775.60	1355.76
775.78	1396.71
775.95	1300.46
776.13	1374.19
776.31	1392.62
776.49	1378.28
776.67	1312.75
776.85	1417.19
777.03	1306.60
777.21	1345.52
777.39	1361.90
777.57	1351.66
777.75	1239.02
777.92	1294.32
778.10	1349.61
778.28	1339.37
778.46	1357.80
778.64	1372.14
778.82	1247.21
779.00	1357.80
779.18	1292.27
779.36	1351.66
779.53	1267.69
779.71	1435.63
779.89	1370.09
780.07	1394.67
780.25	1316.84
780.43	1335.28
780.61	1306.60
780.79	1273.84
780.96	1409.00
781.14	1347.56
781.32	1351.66
781.50	1339.37
781.68	1351.66
781.86	1380.33
782.04	1306.60
782.21	1271.79
782.39	1366.00
782.57	1374.19
782.75	1343.47
782.93	1343.47
783.11	1294.32
783.29	1325.04
783.46	1353.71
783.64	1327.08
783.82	1314.80
784.00	1339.37
784.18	1337.32
784.36	1327.08
784.54	1329.13
784.71	1267.69
784.89	1347.56
785.07	1376.24
785.25	1335.28
785.43	1327.08
785.60	1314.80
785.78	1333.23
785.96	1292.27
786.14	1368.04
786.32	1302.51
786.50	1376.24
786.67	1312.75
786.85	1347.56
787.03	1282.03
787.21	1366.00
787.39	1300.46
787.56	1359.85
787.74	1411.05
787.92	1388.52
788.10	1312.75
788.28	1329.13
788.45	1339.37
788.63	1333.23
788.81	1294.32
788.99	1335.28
789.17	1294.32
789.34	1370.09
789.52	1339.37
789.70	1333.23
789.88	1277.93
790.06	1306.60
790.23	1304.56
790.41	1400.81
790.59	1353.71
790.77	1265.64
790.95	1343.47
791.12	1380.33
791.30	1351.66
791.48	1421.29
791.66	1271.79
791.83	1310.70
792.01	1263.60
792.19	1384.43
792.37	1372.14
792.54	1359.85
792.72	1320.94
792.90	1296.36
793.08	1384.43
793.25	1355.76
793.43	1191.92
793.61	1288.17
793.79	1394.67
793.96	1343.47
794.14	1318.89
794.32	1314.80
794.50	1431.53
794.67	1347.56
794.85	1376.24
795.03	1335.28
795.21	1296.36
795.38	1325.04
795.56	1275.88
795.74	1286.12
795.92	1296.36
796.09	1327.08
796.27	1376.24
796.45	1333.23
796.62	1288.17
796.80	1284.08
796.98	1388.52
797.16	1259.50
797.33	1263.60
797.51	1271.79
797.69	1316.84
797.86	1257.45
798.04	1247.21
798.22	1382.38
798.40	1275.88
798.57	1302.51
798.75	1312.75
798.93	1327.08
799.10	1322.99
799.28	1310.70
799.46	1290.22
799.63	1255.40
799.81	1341.42
799.99	1298.41
800.17	1318.89
800.34	1187.82
800.52	1263.60
800.70	1366.00
800.87	1310.70
801.05	1343.47
801.23	1327.08
801.40	1337.32
801.58	1243.12
801.76	1263.60
801.93	1339.37
802.11	1343.47
802.29	1355.76
802.46	1271.79
802.64	1284.08
802.82	1325.04
802.99	1341.42
803.17	1406.95
803.35	1316.84
803.52	1359.85
803.70	1310.70
803.88	1282.03
804.05	1331.18
804.23	1363.95
804.41	1230.83
804.58	1345.52
804.76	1308.65
804.94	1273.84
805.11	1265.64
805.29	1380.33
805.46	1277.93
805.64	1316.84
805.82	1355.76
805.99	1310.70
806.17	1325.04
806.35	1286.12
806.52	1245.16
806.70	1312.75
806.87	1327.08
807.05	1251.31
807.23	1327.08
807.40	1329.13
807.58	1316.84
807.76	1343.47
807.93	1345.52
808.11	1331.18
808.28	1339.37
808.46	1363.95
808.64	1284.08
808.81	1331.18
808.99	1335.28
809.16	1312.75
809.34	1288.17
809.52	1306.60
809.69	1318.89
809.87	1251.31
810.04	1294.32
810.22	1306.60
810.40	1335.28
810.57	1279.98
810.75	1269.74
810.92	1306.60
811.10	1222.64
811.28	1265.64
811.45	1290.22
811.63	1286.12
811.80	1355.76
811.98	1294.32
812.15	1271.79
812.33	1343.47
812.51	1376.24
812.68	1284.08
812.86	1335.28
813.03	1314.80
813.21	1333.23
813.38	1329.13
813.56	1314.80
813.74	1347.56
813.91	1318.89
814.09	1294.32
814.26	1314.80
814.44	1374.19
814.61	1322.99
814.79	1267.69
814.96	1294.32
815.14	1322.99
815.31	1273.84
815.49	1279.98
815.67	1333.23
815.84	1263.60
816.02	1302.51
816.19	1341.42
816.37	1288.17
816.54	1312.75
816.72	1343.47
816.89	1308.65
817.07	1310.70
817.24	1259.50
817.42	1275.88
817.59	1265.64
817.77	1259.50
817.94	1380.33
818.12	1370.09
818.29	1310.70
818.47	1310.70
818.64	1202.16
818.82	1325.04
818.99	1325.04
819.17	1300.46
819.34	1306.60
819.52	1294.32
819.69	1243.12
819.87	1286.12
820.04	1294.32
820.22	1241.07
820.39	1304.56
820.57	1298.41
820.74	1417.19
820.92	1298.41
821.09	1267.69
821.27	1329.13
821.44	1322.99
821.62	1277.93
821.79	1316.84
821.97	1345.52
822.14	1261.55
822.32	1277.93
822.49	1284.08
822.67	1284.08
822.84	1378.28
823.02	1247.21
823.19	1353.71
823.37	1388.52
823.54	1290.22
823.72	1239.02
823.89	1339.37
824.06	1302.51
824.24	1290.22
824.41	1314.80
824.59	1312.75
824.76	1331.18
824.94	1267.69
825.11	1257.45
825.29	1306.60
825.46	1294.32
825.63	1314.80
825.81	1341.42
825.98	1347.56
826.16	1298.41
826.33	1259.50
826.51	1261.55
826.68	1294.32
826.86	1329.13
827.03	1239.02
827.20	1282.03
827.38	1318.89
827.55	1284.08
827.73	1253.36
827.90	1304.56
828.07	1310.70
828.25	1265.64
828.42	1269.74
828.60	1259.50
828.77	1275.88
828.95	1263.60
829.12	1284.08
829.29	1208.30
829.47	1294.32
829.64	1296.36
829.82	1214.45
829.99	1247.21
830.16	1337.32
830.34	1255.40
830.51	1294.32
830.69	1341.42
830.86	1300.46
831.03	1312.75
831.21	1290.22
831.38	1253.36
831.55	1329.13
831.73	1277.93
831.90	1294.32
832.08	1220.59
832.25	1322.99
832.42	1261.55
832.60	1318.89
832.77	1335.28
832.94	1296.36
833.12	1296.36
833.29	1241.07
833.47	1304.56
833.64	1284.08
833.81	1363.95
833.99	1357.80
834.16	1335.28
834.33	1261.55
834.51	1239.02
834.68	1282.03
834.85	1265.64
835.03	1327.08
835.20	1325.04
835.37	1277.93
835.55	1257.45
835.72	1288.17
835.90	1310.70
836.07	1296.36
836.24	1300.46
836.42	1320.94
836.59	1224.69
836.76	1290.22
836.94	1300.46
837.11	1337.32
837.28	1337.32
837.46	1312.75
837.63	1245.16
837.80	1212.40
837.97	1294.32
838.15	1351.66
838.32	1288.17
838.49	1282.03
838.67	1327.08
838.84	1269.74
839.01	1282.03
839.19	1333.23
839.36	1304.56
839.53	1290.22
839.71	1271.79
839.88	1296.36
840.05	1230.83
840.22	1222.64
840.40	1241.07
840.57	1320.94
840.74	1181.68
840.92	1312.75
841.09	1318.89
841.26	1286.12
841.43	1339.37
841.61	1230.83
841.78	1349.61
841.95	1232.88
842.13	1310.70
842.30	1355.76
842.47	1284.08
842.64	1329.13
842.82	1314.80
842.99	1296.36
843.16	1288.17
843.34	1284.08
843.51	1290.22
843.68	1269.74
843.85	1247.21
844.03	1245.16
844.20	1337.32
844.37	1368.04
844.54	1249.26
844.72	1286.12
844.89	1312.75
845.06	1322.99
845.23	1210.35
845.41	1298.41
845.58	1255.40
845.75	1257.45
845.92	1325.04
846.10	1300.46
846.27	1277.93
846.44	1300.46
846.61	1294.32
846.78	1322.99
846.96	1333.23
847.13	1279.98
847.30	1265.64
847.47	1214.45
847.65	1279.98
847.82	1314.80
847.99	1261.55
848.16	1390.57
848.33	1279.98
848.51	1349.61
848.68	1286.12
848.85	1224.69
849.02	1353.71
849.19	1228.78
849.37	1279.98
849.54	1271.79
849.71	1275.88
849.88	1294.32
850.05	1251.31
850.23	1304.56
850.40	1337.32
850.57	1294.32
850.74	1269.74
850.91	1218.54
851.09	1247.21
851.26	1292.27
851.43	1265.64
851.60	1351.66
851.77	1284.08
851.95	1275.88
852.12	1331.18
852.29	1220.59
852.46	1288.17
852.63	1220.59
852.80	1259.50
852.98	1310.70
853.15	1298.41
853.32	1265.64
853.49	1341.42
853.66	1327.08
853.83	1286.12
854.01	1224.69
854.18	1306.60
854.35	1343.47
854.52	1239.02
854.69	1236.97
854.86	1282.03
855.03	1251.31
855.21	1329.13
855.38	1318.89
855.55	1279.98
855.72	1257.45
855.89	1351.66
856.06	1288.17
856.23	1232.88
856.41	1312.75
856.58	1273.84
856.75	1337.32
856.92	1363.95
857.09	1308.65
857.26	1306.60
857.43	1284.08
857.60	1251.31
857.78	1347.56
857.95	1302.51
858.12	1306.60
858.29	1273.84
858.46	1312.75
858.63	1279.98
858.80	1261.55
858.97	1290.22
859.14	1269.74
859.32	1228.78
859.49	1241.07
859.66	1316.84
859.83	1232.88
860.00	1284.08
860.17	1294.32
860.34	1243.12
860.51	1310.70
860.68	1333.23
860.85	1245.16
861.02	1329.13
861.20	1263.60
861.37	1222.64
861.54	1255.40
861.71	1271.79
861.88	1277.93
862.05	1243.12
862.22	1212.40
862.39	1294.32
862.56	1228.78
862.73	1292.27
862.90	1316.84
863.07	1306.60
863.24	1294.32
863.41	1282.03
863.59	1308.65
863.76	1275.88
863.93	1142.77
864.10	1302.51
864.27	1247.21
864.44	1257.45
864.61	1306.60
864.78	1234.93
864.95	1279.98
865.12	1273.84
865.29	1294.32
865.46	1284.08
865.63	1253.36
865.80	1363.95
865.97	1335.28
866.14	1273.84
866.31	1279.98
866.48	1269.74
866.65	1241.07
866.82	1261.55
866.99	1228.78
867.16	1296.36
867.33	1263.60
867.50	1329.13
867.67	1300.46
867.84	1255.40
868.01	1263.60
868.18	1337.32
868.35	1351.66
868.52	1259.50
868.69	1335.28
868.86	1257.45
869.03	1255.40
869.20	1259.50
869.37	1294.32
869.54	1361.90
869.71	1239.02
869.88	1206.25
870.05	1316.84
870.22	1286.12
870.39	1222.64
870.56	1290.22
870.73	1279.98
870.90	1318.89
871.07	1290.22
871.24	1230.83
871.41	1239.02
871.58	1271.79
871.75	1261.55
871.92	1265.64
872.09	1304.56
872.26	1275.88
872.43	1306.60
872.60	1331.18
872.77	1255.40
872.94	1316.84
873.11	1372.14
873.28	1298.41
873.45	1228.78
873.62	1224.69
873.79	1257.45
873.96	1273.84
874.13	1277.93
874.30	1236.97
874.47	1271.79
874.64	1296.36
874.80	1302.51
874.97	1267.69
875.14	1263.60
875.31	1243.12
875.48	1261.55
875.65	1269.74
875.82	1279.98
875.99	1245.16
876.16	1261.55
876.33	1363.95
876.50	1273.84
876.67	1284.08
876.84	1282.03
877.01	1251.31
877.17	1363.95
877.34	1232.88
877.51	1273.84
877.68	1314.80
877.85	1255.40
878.02	1310.70
878.19	1247.21
878.36	1255.40
878.53	1218.54
878.70	1245.16
878.87	1247.21
879.03	1265.64
879.20	1288.17
879.37	1218.54
879.54	1339.37
879.71	1310.70
879.88	1234.93
880.05	1255.40
880.22	1294.32
880.39	1269.74
880.55	1269.74
880.72	1257.45
880.89	1273.84
881.06	1222.64
881.23	1241.07
881.40	1271.79
881.57	1245.16
881.74	1329.13
881.90	1239.02
882.07	1304.56
882.24	1222.64
882.41	1335.28
882.58	1282.03
882.75	1222.64
882.92	1306.60
883.08	1306.60
883.25	1261.55
883.42	1257.45
883.59	1236.97
883.76	1245.16
883.93	1206.25
884.09	1302.51
884.26	1284.08
884.43	1239.02
884.60	1294.32
884.77	1226.73
884.94	1288.17
885.10	1329.13
885.27	1347.56
885.44	1253.36
885.61	1261.55
885.78	1271.79
885.95	1251.31
886.11	1239.02
886.28	1333.23
886.45	1273.84
886.62	1259.50
886.79	1193.97
886.96	1234.93
887.12	1204.21
887.29	1314.80
887.46	1234.93
887.63	1296.36
887.80	1275.88
887.96	1263.60
888.13	1271.79
888.30	1198.06
888.47	1232.88
888.64	1306.60
888.80	1177.58
888.97	1302.51
889.14	1261.55
889.31	1335.28
889.47	1320.94
889.64	1282.03
889.81	1247.21
889.98	1273.84
890.15	1232.88
890.31	1316.84
890.48	1316.84
890.65	1316.84
890.82	1316.84
890.98	1316.84
891.15	1316.84
>>>>>End Processed Spectral Data<<<<<
